Labels	0	
Type	Emission Scan	
Comment		
Start	1399.95000	
Stop	1699.65000	
Step	0.450	
Fixed/Offset	900.00	
Xaxis	Wavelength	
Yaxis	Counts	
Scan Corr. by File	False	
Corr. by Ref. Det.	False	
Fixed/Offset Corr. by File	False	
Repeats	1	
Dwell Time	0.20	
Lamp	uF900	
Temp	0.00	
Scan Polariser	None	
Scan Slit	0.00	
Fixed/Offset Polariser	None	
Fixed/Offset Slit	0.00	
Detector	NIR PMT	

1399.95000	2.061E+4	
1400.4000	2.074E+4	
1400.85000	2.102E+4	
1401.3000	2.072E+4	
1401.75000	2.099E+4	
1402.2000	2.098E+4	
1402.65000	2.059E+4	
1403.1000	2.104E+4	
1403.55000	2.076E+4	
1404.000	2.097E+4	
1404.45000	2.094E+4	
1404.9000	2.076E+4	
1405.35000	2.060E+4	
1405.8000	2.080E+4	
1406.25000	2.102E+4	
1406.7000	2.093E+4	
1407.15000	2.072E+4	
1407.6000	2.091E+4	
1408.05000	2.099E+4	
1408.5000	2.076E+4	
1408.95000	2.106E+4	
1409.4000	2.116E+4	
1409.85000	2.094E+4	
1410.3000	2.116E+4	
1410.75000	2.131E+4	
1411.2000	2.093E+4	
1411.65000	2.089E+4	
1412.1000	2.111E+4	
1412.55000	2.108E+4	
1413.000	2.125E+4	
1413.45000	2.123E+4	
1413.9000	2.148E+4	
1414.35000	2.114E+4	
1414.8000	2.110E+4	
1415.25000	2.121E+4	
1415.7000	2.140E+4	
1416.15000	2.130E+4	
1416.6000	2.102E+4	
1417.05000	2.107E+4	
1417.5000	2.115E+4	
1417.95000	2.120E+4	
1418.4000	2.144E+4	
1418.85000	2.118E+4	
1419.3000	2.111E+4	
1419.75000	2.136E+4	
1420.2000	2.102E+4	
1420.65000	2.109E+4	
1421.1000	2.119E+4	
1421.55000	2.099E+4	
1422.000	2.128E+4	
1422.45000	2.098E+4	
1422.9000	2.121E+4	
1423.35000	2.102E+4	
1423.8000	2.135E+4	
1424.25000	2.093E+4	
1424.7000	2.120E+4	
1425.15000	2.123E+4	
1425.6000	2.130E+4	
1426.05000	2.139E+4	
1426.5000	2.118E+4	
1426.95000	2.099E+4	
1427.4000	2.104E+4	
1427.85000	2.124E+4	
1428.3000	2.134E+4	
1428.75000	2.119E+4	
1429.2000	2.138E+4	
1429.65000	2.140E+4	
1430.1000	2.127E+4	
1430.55000	2.144E+4	
1431.000	2.143E+4	
1431.45000	2.149E+4	
1431.9000	2.153E+4	
1432.35000	2.157E+4	
1432.8000	2.156E+4	
1433.25000	2.159E+4	
1433.7000	2.167E+4	
1434.15000	2.151E+4	
1434.6000	2.155E+4	
1435.05000	2.136E+4	
1435.5000	2.157E+4	
1435.95000	2.162E+4	
1436.4000	2.168E+4	
1436.85000	2.139E+4	
1437.3000	2.184E+4	
1437.75000	2.185E+4	
1438.2000	2.187E+4	
1438.65000	2.169E+4	
1439.1000	2.211E+4	
1439.55000	2.189E+4	
1440.00	2.231E+4	
1440.45000	2.193E+4	
1440.9000	2.168E+4	
1441.35000	2.168E+4	
1441.8000	2.202E+4	
1442.25000	2.207E+4	
1442.7000	2.193E+4	
1443.15000	2.214E+4	
1443.6000	2.188E+4	
1444.05000	2.194E+4	
1444.5000	2.218E+4	
1444.95000	2.205E+4	
1445.4000	2.258E+4	
1445.85000	2.231E+4	
1446.3000	2.224E+4	
1446.75000	2.224E+4	
1447.2000	2.215E+4	
1447.65000	2.260E+4	
1448.1000	2.206E+4	
1448.55000	2.245E+4	
1449.000	2.238E+4	
1449.45000	2.255E+4	
1449.9000	2.230E+4	
1450.35000	2.278E+4	
1450.8000	2.275E+4	
1451.25000	2.242E+4	
1451.7000	2.318E+4	
1452.15000	2.280E+4	
1452.6000	2.304E+4	
1453.05000	2.299E+4	
1453.5000	2.320E+4	
1453.95000	2.368E+4	
1454.4000	2.349E+4	
1454.85000	2.377E+4	
1455.3000	2.344E+4	
1455.75000	2.370E+4	
1456.2000	2.341E+4	
1456.65000	2.397E+4	
1457.1000	2.389E+4	
1457.55000	2.410E+4	
1458.000	2.407E+4	
1458.45000	2.425E+4	
1458.9000	2.414E+4	
1459.35000	2.433E+4	
1459.8000	2.486E+4	
1460.25000	2.473E+4	
1460.7000	2.482E+4	
1461.15000	2.529E+4	
1461.6000	2.567E+4	
1462.05000	2.583E+4	
1462.5000	2.654E+4	
1462.95000	2.636E+4	
1463.4000	2.662E+4	
1463.85000	2.675E+4	
1464.3000	2.678E+4	
1464.75000	2.755E+4	
1465.2000	2.789E+4	
1465.65000	2.778E+4	
1466.1000	2.868E+4	
1466.55000	2.885E+4	
1467.000	2.932E+4	
1467.45000	2.939E+4	
1467.9000	2.987E+4	
1468.35000	3.060E+4	
1468.8000	3.115E+4	
1469.25000	3.155E+4	
1469.7000	3.171E+4	
1470.15000	3.264E+4	
1470.6000	3.294E+4	
1471.05000	3.340E+4	
1471.5000	3.379E+4	
1471.95000	3.516E+4	
1472.4000	3.551E+4	
1472.85000	3.578E+4	
1473.3000	3.641E+4	
1473.75000	3.711E+4	
1474.2000	3.783E+4	
1474.65000	3.813E+4	
1475.1000	3.918E+4	
1475.55000	3.983E+4	
1476.000	4.055E+4	
1476.45000	4.102E+4	
1476.9000	4.196E+4	
1477.35000	4.212E+4	
1477.8000	4.315E+4	
1478.25000	4.335E+4	
1478.7000	4.415E+4	
1479.15000	4.521E+4	
1479.6000	4.594E+4	
1480.05000	4.654E+4	
1480.5000	4.723E+4	
1480.95000	4.809E+4	
1481.4000	4.813E+4	
1481.85000	4.847E+4	
1482.3000	4.971E+4	
1482.75000	5.010E+4	
1483.2000	5.138E+4	
1483.65000	5.199E+4	
1484.1000	5.247E+4	
1484.55000	5.314E+4	
1485.000	5.319E+4	
1485.45000	5.359E+4	
1485.9000	5.472E+4	
1486.35000	5.553E+4	
1486.8000	5.656E+4	
1487.25000	5.658E+4	
1487.7000	5.760E+4	
1488.15000	5.763E+4	
1488.6000	5.801E+4	
1489.05000	5.879E+4	
1489.5000	5.973E+4	
1489.95000	6.019E+4	
1490.4000	6.099E+4	
1490.85000	6.144E+4	
1491.3000	6.167E+4	
1491.75000	6.252E+4	
1492.2000	6.275E+4	
1492.65000	6.366E+4	
1493.1000	6.388E+4	
1493.55000	6.413E+4	
1494.000	6.465E+4	
1494.45000	6.484E+4	
1494.9000	6.538E+4	
1495.35000	6.582E+4	
1495.8000	6.612E+4	
1496.25000	6.699E+4	
1496.7000	6.771E+4	
1497.15000	6.784E+4	
1497.6000	6.830E+4	
1498.05000	6.840E+4	
1498.5000	6.916E+4	
1498.95000	6.858E+4	
1499.4000	6.948E+4	
1499.85000	6.937E+4	
1500.3000	6.978E+4	
1500.75000	7.001E+4	
1501.2000	7.086E+4	
1501.65000	7.088E+4	
1502.1000	7.108E+4	
1502.55000	7.117E+4	
1503.000	7.172E+4	
1503.45000	7.147E+4	
1503.9000	7.118E+4	
1504.35000	7.173E+4	
1504.8000	7.192E+4	
1505.25000	7.196E+4	
1505.7000	7.219E+4	
1506.15000	7.248E+4	
1506.6000	7.242E+4	
1507.05000	7.236E+4	
1507.5000	7.359E+4	
1507.95000	7.259E+4	
1508.4000	7.333E+4	
1508.85000	7.299E+4	
1509.3000	7.364E+4	
1509.75000	7.349E+4	
1510.2000	7.308E+4	
1510.65000	7.331E+4	
1511.1000	7.356E+4	
1511.55000	7.393E+4	
1512.000	7.427E+4	
1512.45000	7.417E+4	
1512.9000	7.402E+4	
1513.35000	7.449E+4	
1513.8000	7.544E+4	
1514.25000	7.515E+4	
1514.7000	7.523E+4	
1515.15000	7.507E+4	
1515.6000	7.664E+4	
1516.05000	7.674E+4	
1516.5000	7.705E+4	
1516.95000	7.760E+4	
1517.4000	7.831E+4	
1517.85000	7.868E+4	
1518.3000	7.918E+4	
1518.75000	7.959E+4	
1519.2000	8.053E+4	
1519.65000	8.058E+4	
1520.1000	8.161E+4	
1520.55000	8.213E+4	
1521.000	8.291E+4	
1521.45000	8.333E+4	
1521.9000	8.428E+4	
1522.35000	8.544E+4	
1522.8000	8.630E+4	
1523.25000	8.712E+4	
1523.7000	8.810E+4	
1524.15000	8.815E+4	
1524.6000	8.931E+4	
1525.05000	9.003E+4	
1525.5000	9.200E+4	
1525.95000	9.290E+4	
1526.4000	9.490E+4	
1526.85000	9.513E+4	
1527.3000	9.620E+4	
1527.75000	9.812E+4	
1528.2000	9.935E+4	
1528.65000	1.001E+5	
1529.1000	1.022E+5	
1529.55000	1.029E+5	
1530.00	1.050E+5	
1530.45000	1.064E+5	
1530.9000	1.085E+5	
1531.35000	1.087E+5	
1531.8000	1.099E+5	
1532.25000	1.108E+5	
1532.7000	1.116E+5	
1533.15000	1.118E+5	
1533.6000	1.128E+5	
1534.05000	1.125E+5	
1534.5000	1.128E+5	
1534.95000	1.122E+5	
1535.4000	1.112E+5	
1535.85000	1.109E+5	
1536.3000	1.103E+5	
1536.75000	1.091E+5	
1537.2000	1.090E+5	
1537.65000	1.077E+5	
1538.1000	1.076E+5	
1538.55000	1.069E+5	
1539.000	1.065E+5	
1539.45000	1.057E+5	
1539.9000	1.062E+5	
1540.35000	1.056E+5	
1540.8000	1.058E+5	
1541.25000	1.048E+5	
1541.7000	1.047E+5	
1542.15000	1.047E+5	
1542.6000	1.052E+5	
1543.05000	1.036E+5	
1543.5000	1.025E+5	
1543.95000	1.027E+5	
1544.4000	1.024E+5	
1544.85000	1.016E+5	
1545.3000	1.014E+5	
1545.75000	9.943E+4	
1546.2000	1.002E+5	
1546.65000	9.905E+4	
1547.1000	9.849E+4	
1547.55000	9.785E+4	
1548.000	9.772E+4	
1548.45000	9.706E+4	
1548.9000	9.720E+4	
1549.35000	9.650E+4	
1549.8000	9.618E+4	
1550.25000	9.561E+4	
1550.7000	9.635E+4	
1551.15000	9.646E+4	
1551.6000	9.651E+4	
1552.05000	9.596E+4	
1552.5000	9.638E+4	
1552.95000	9.698E+4	
1553.4000	9.715E+4	
1553.85000	9.740E+4	
1554.3000	9.804E+4	
1554.75000	9.798E+4	
1555.2000	9.846E+4	
1555.65000	9.824E+4	
1556.1000	9.829E+4	
1556.55000	9.853E+4	
1557.000	9.810E+4	
1557.45000	9.836E+4	
1557.9000	9.844E+4	
1558.35000	9.760E+4	
1558.8000	9.792E+4	
1559.25000	9.709E+4	
1559.7000	9.634E+4	
1560.15000	9.589E+4	
1560.6000	9.467E+4	
1561.05000	9.373E+4	
1561.5000	9.309E+4	
1561.95000	9.221E+4	
1562.4000	9.117E+4	
1562.85000	9.054E+4	
1563.3000	8.987E+4	
1563.75000	8.909E+4	
1564.2000	8.782E+4	
1564.65000	8.692E+4	
1565.1000	8.544E+4	
1565.55000	8.493E+4	
1566.000	8.385E+4	
1566.45000	8.289E+4	
1566.9000	8.245E+4	
1567.35000	8.235E+4	
1567.8000	8.078E+4	
1568.25000	7.915E+4	
1568.7000	7.839E+4	
1569.15000	7.741E+4	
1569.6000	7.715E+4	
1570.05000	7.577E+4	
1570.5000	7.462E+4	
1570.95000	7.382E+4	
1571.4000	7.348E+4	
1571.85000	7.278E+4	
1572.3000	7.156E+4	
1572.75000	7.086E+4	
1573.2000	7.027E+4	
1573.65000	6.899E+4	
1574.1000	6.809E+4	
1574.55000	6.802E+4	
1575.000	6.721E+4	
1575.45000	6.584E+4	
1575.9000	6.621E+4	
1576.35000	6.561E+4	
1576.8000	6.496E+4	
1577.25000	6.413E+4	
1577.7000	6.408E+4	
1578.15000	6.359E+4	
1578.6000	6.301E+4	
1579.05000	6.290E+4	
1579.5000	6.247E+4	
1579.95000	6.282E+4	
1580.4000	6.213E+4	
1580.85000	6.182E+4	
1581.3000	6.150E+4	
1581.75000	6.085E+4	
1582.2000	6.110E+4	
1582.65000	6.094E+4	
1583.1000	6.093E+4	
1583.55000	6.108E+4	
1584.000	6.002E+4	
1584.45000	6.012E+4	
1584.9000	6.013E+4	
1585.35000	6.007E+4	
1585.8000	6.008E+4	
1586.25000	5.998E+4	
1586.7000	5.950E+4	
1587.15000	5.906E+4	
1587.6000	5.875E+4	
1588.05000	5.873E+4	
1588.5000	5.873E+4	
1588.95000	5.857E+4	
1589.4000	5.787E+4	
1589.85000	5.821E+4	
1590.3000	5.774E+4	
1590.75000	5.762E+4	
1591.2000	5.769E+4	
1591.65000	5.726E+4	
1592.1000	5.698E+4	
1592.55000	5.726E+4	
1593.000	5.650E+4	
1593.45000	5.711E+4	
1593.9000	5.684E+4	
1594.35000	5.639E+4	
1594.8000	5.667E+4	
1595.25000	5.587E+4	
1595.7000	5.606E+4	
1596.15000	5.599E+4	
1596.6000	5.595E+4	
1597.05000	5.528E+4	
1597.5000	5.505E+4	
1597.95000	5.537E+4	
1598.4000	5.476E+4	
1598.85000	5.503E+4	
1599.3000	5.414E+4	
1599.75000	5.449E+4	
1600.2000	5.437E+4	
1600.65000	5.407E+4	
1601.1000	5.364E+4	
1601.55000	5.313E+4	
1602.000	5.329E+4	
1602.45000	5.322E+4	
1602.9000	5.268E+4	
1603.35000	5.196E+4	
1603.8000	5.209E+4	
1604.25000	5.156E+4	
1604.7000	5.153E+4	
1605.15000	5.115E+4	
1605.6000	5.024E+4	
1606.05000	5.009E+4	
1606.5000	5.022E+4	
1606.95000	5.000E+4	
1607.4000	4.902E+4	
1607.85000	4.942E+4	
1608.3000	4.874E+4	
1608.75000	4.864E+4	
1609.2000	4.826E+4	
1609.65000	4.774E+4	
1610.1000	4.728E+4	
1610.55000	4.691E+4	
1611.000	4.660E+4	
1611.45000	4.551E+4	
1611.9000	4.532E+4	
1612.35000	4.488E+4	
1612.8000	4.491E+4	
1613.25000	4.426E+4	
1613.7000	4.368E+4	
1614.15000	4.350E+4	
1614.6000	4.283E+4	
1615.05000	4.270E+4	
1615.5000	4.191E+4	
1615.95000	4.123E+4	
1616.4000	4.067E+4	
1616.85000	4.022E+4	
1617.3000	3.931E+4	
1617.75000	3.868E+4	
1618.2000	3.860E+4	
1618.65000	3.765E+4	
1619.1000	3.726E+4	
1619.55000	3.636E+4	
1620.00	3.580E+4	
1620.45000	3.568E+4	
1620.9000	3.430E+4	
1621.35000	3.428E+4	
1621.8000	3.381E+4	
1622.25000	3.299E+4	
1622.7000	3.268E+4	
1623.15000	3.201E+4	
1623.6000	3.148E+4	
1624.05000	3.090E+4	
1624.5000	3.083E+4	
1624.95000	3.046E+4	
1625.4000	2.910E+4	
1625.85000	2.889E+4	
1626.3000	2.833E+4	
1626.75000	2.819E+4	
1627.2000	2.793E+4	
1627.65000	2.733E+4	
1628.1000	2.695E+4	
1628.55000	2.694E+4	
1629.000	2.626E+4	
1629.45000	2.632E+4	
1629.9000	2.569E+4	
1630.35000	2.519E+4	
1630.8000	2.517E+4	
1631.25000	2.503E+4	
1631.7000	2.500E+4	
1632.15000	2.462E+4	
1632.6000	2.433E+4	
1633.05000	2.395E+4	
1633.5000	2.427E+4	
1633.95000	2.369E+4	
1634.4000	2.379E+4	
1634.85000	2.341E+4	
1635.3000	2.339E+4	
1635.75000	2.333E+4	
1636.2000	2.316E+4	
1636.65000	2.308E+4	
1637.1000	2.273E+4	
1637.55000	2.281E+4	
1638.000	2.265E+4	
1638.45000	2.218E+4	
1638.9000	2.282E+4	
1639.35000	2.243E+4	
1639.8000	2.213E+4	
1640.25000	2.226E+4	
1640.7000	2.234E+4	
1641.15000	2.203E+4	
1641.6000	2.207E+4	
1642.05000	2.207E+4	
1642.5000	2.199E+4	
1642.95000	2.183E+4	
1643.4000	2.178E+4	
1643.85000	2.195E+4	
1644.3000	2.157E+4	
1644.75000	2.154E+4	
1645.2000	2.143E+4	
1645.65000	2.156E+4	
1646.1000	2.154E+4	
1646.55000	2.137E+4	
1647.000	2.155E+4	
1647.45000	2.149E+4	
1647.9000	2.132E+4	
1648.35000	2.129E+4	
1648.8000	2.119E+4	
1649.25000	2.120E+4	
1649.7000	2.115E+4	
1650.15000	2.120E+4	
1650.6000	2.101E+4	
1651.05000	2.123E+4	
1651.5000	2.107E+4	
1651.95000	2.090E+4	
1652.4000	2.094E+4	
1652.85000	2.111E+4	
1653.3000	2.100E+4	
1653.75000	2.114E+4	
1654.2000	2.096E+4	
1654.65000	2.125E+4	
1655.1000	2.097E+4	
1655.55000	2.067E+4	
1656.000	2.097E+4	
1656.45000	2.098E+4	
1656.9000	2.115E+4	
1657.35000	2.116E+4	
1657.8000	2.096E+4	
1658.25000	2.103E+4	
1658.7000	2.098E+4	
1659.15000	2.069E+4	
1659.6000	2.096E+4	
1660.05000	2.116E+4	
1660.5000	2.117E+4	
1660.95000	2.100E+4	
1661.4000	2.084E+4	
1661.85000	2.108E+4	
1662.3000	2.078E+4	
1662.75000	2.106E+4	
1663.2000	2.098E+4	
1663.65000	2.090E+4	
1664.1000	2.089E+4	
1664.55000	2.090E+4	
1665.000	2.092E+4	
1665.45000	2.123E+4	
1665.9000	2.126E+4	
1666.35000	2.150E+4	
1666.8000	2.085E+4	
1667.25000	2.100E+4	
1667.7000	2.086E+4	
1668.15000	2.076E+4	
1668.6000	2.096E+4	
1669.05000	2.092E+4	
1669.5000	2.113E+4	
1669.95000	2.082E+4	
1670.4000	2.104E+4	
1670.85000	2.074E+4	
1671.3000	2.112E+4	
1671.75000	2.115E+4	
1672.2000	2.115E+4	
1672.65000	2.086E+4	
1673.1000	2.109E+4	
1673.55000	2.105E+4	
1674.000	2.122E+4	
1674.45000	2.086E+4	
1674.9000	2.073E+4	
1675.35000	2.099E+4	
1675.8000	2.079E+4	
1676.25000	2.098E+4	
1676.7000	2.116E+4	
1677.15000	2.114E+4	
1677.6000	2.129E+4	
1678.05000	2.109E+4	
1678.5000	2.109E+4	
1678.95000	2.095E+4	
1679.4000	2.067E+4	
1679.85000	2.106E+4	
1680.3000	2.095E+4	
1680.75000	2.087E+4	
1681.2000	2.079E+4	
1681.65000	2.076E+4	
1682.1000	2.088E+4	
1682.55000	2.108E+4	
1683.000	2.108E+4	
1683.45000	2.121E+4	
1683.9000	2.146E+4	
1684.35000	2.117E+4	
1684.8000	2.147E+4	
1685.25000	2.118E+4	
1685.7000	2.119E+4	
1686.15000	2.108E+4	
1686.6000	2.102E+4	
1687.05000	2.092E+4	
1687.5000	2.083E+4	
1687.95000	2.137E+4	
1688.4000	2.127E+4	
1688.85000	2.108E+4	
1689.3000	2.119E+4	
1689.75000	2.100E+4	
1690.2000	2.130E+4	
1690.65000	2.098E+4	
1691.1000	2.094E+4	
1691.55000	2.129E+4	
1692.000	2.131E+4	
1692.45000	2.115E+4	
1692.9000	2.104E+4	
1693.35000	2.111E+4	
1693.8000	2.116E+4	
1694.25000	2.078E+4	
1694.7000	2.077E+4	
1695.15000	2.119E+4	
1695.6000	2.089E+4	
1696.05000	2.088E+4	
1696.5000	2.079E+4	
1696.95000	2.085E+4	
1697.4000	2.070E+4	
1697.85000	2.099E+4	
1698.3000	2.108E+4	
1698.75000	2.080E+4	
1699.2000	2.075E+4	
1699.65000	2.102E+4	
