Labels	1	
Type	Emission Scan	
Comment		
Start	1399.95000	
Stop	1699.65000	
Step	0.450	
Fixed/Offset	900.00	
Xaxis	Wavelength	
Yaxis	Counts	
Scan Corr. by File	False	
Corr. by Ref. Det.	False	
Fixed/Offset Corr. by File	False	
Repeats	1	
Dwell Time	0.20	
Lamp	uF900	
Temp	0.00	
Scan Polariser	None	
Scan Slit	0.00	
Fixed/Offset Polariser	None	
Fixed/Offset Slit	0.00	
Detector	NIR PMT	

1399.95000	2.087E+4	
1400.4000	2.103E+4	
1400.85000	2.093E+4	
1401.3000	2.051E+4	
1401.75000	2.048E+4	
1402.2000	2.069E+4	
1402.65000	2.066E+4	
1403.1000	2.086E+4	
1403.55000	2.084E+4	
1404.000	2.062E+4	
1404.45000	2.095E+4	
1404.9000	2.114E+4	
1405.35000	2.065E+4	
1405.8000	2.084E+4	
1406.25000	2.086E+4	
1406.7000	2.098E+4	
1407.15000	2.082E+4	
1407.6000	2.111E+4	
1408.05000	2.106E+4	
1408.5000	2.090E+4	
1408.95000	2.099E+4	
1409.4000	2.096E+4	
1409.85000	2.073E+4	
1410.3000	2.114E+4	
1410.75000	2.144E+4	
1411.2000	2.134E+4	
1411.65000	2.132E+4	
1412.1000	2.133E+4	
1412.55000	2.127E+4	
1413.000	2.104E+4	
1413.45000	2.124E+4	
1413.9000	2.129E+4	
1414.35000	2.093E+4	
1414.8000	2.103E+4	
1415.25000	2.090E+4	
1415.7000	2.101E+4	
1416.15000	2.109E+4	
1416.6000	2.147E+4	
1417.05000	2.130E+4	
1417.5000	2.152E+4	
1417.95000	2.126E+4	
1418.4000	2.119E+4	
1418.85000	2.117E+4	
1419.3000	2.123E+4	
1419.75000	2.125E+4	
1420.2000	2.127E+4	
1420.65000	2.128E+4	
1421.1000	2.140E+4	
1421.55000	2.124E+4	
1422.000	2.141E+4	
1422.45000	2.155E+4	
1422.9000	2.155E+4	
1423.35000	2.157E+4	
1423.8000	2.133E+4	
1424.25000	2.153E+4	
1424.7000	2.123E+4	
1425.15000	2.159E+4	
1425.6000	2.150E+4	
1426.05000	2.159E+4	
1426.5000	2.171E+4	
1426.95000	2.177E+4	
1427.4000	2.177E+4	
1427.85000	2.167E+4	
1428.3000	2.143E+4	
1428.75000	2.180E+4	
1429.2000	2.143E+4	
1429.65000	2.165E+4	
1430.1000	2.181E+4	
1430.55000	2.176E+4	
1431.000	2.194E+4	
1431.45000	2.195E+4	
1431.9000	2.190E+4	
1432.35000	2.232E+4	
1432.8000	2.220E+4	
1433.25000	2.251E+4	
1433.7000	2.237E+4	
1434.15000	2.235E+4	
1434.6000	2.228E+4	
1435.05000	2.298E+4	
1435.5000	2.284E+4	
1435.95000	2.279E+4	
1436.4000	2.297E+4	
1436.85000	2.271E+4	
1437.3000	2.274E+4	
1437.75000	2.278E+4	
1438.2000	2.264E+4	
1438.65000	2.268E+4	
1439.1000	2.293E+4	
1439.55000	2.315E+4	
1440.00	2.321E+4	
1440.45000	2.321E+4	
1440.9000	2.358E+4	
1441.35000	2.347E+4	
1441.8000	2.335E+4	
1442.25000	2.341E+4	
1442.7000	2.341E+4	
1443.15000	2.402E+4	
1443.6000	2.399E+4	
1444.05000	2.414E+4	
1444.5000	2.407E+4	
1444.95000	2.400E+4	
1445.4000	2.380E+4	
1445.85000	2.409E+4	
1446.3000	2.433E+4	
1446.75000	2.435E+4	
1447.2000	2.441E+4	
1447.65000	2.484E+4	
1448.1000	2.530E+4	
1448.55000	2.493E+4	
1449.000	2.502E+4	
1449.45000	2.543E+4	
1449.9000	2.549E+4	
1450.35000	2.577E+4	
1450.8000	2.571E+4	
1451.25000	2.586E+4	
1451.7000	2.572E+4	
1452.15000	2.593E+4	
1452.6000	2.667E+4	
1453.05000	2.650E+4	
1453.5000	2.691E+4	
1453.95000	2.703E+4	
1454.4000	2.732E+4	
1454.85000	2.721E+4	
1455.3000	2.762E+4	
1455.75000	2.807E+4	
1456.2000	2.811E+4	
1456.65000	2.874E+4	
1457.1000	2.903E+4	
1457.55000	2.945E+4	
1458.000	2.984E+4	
1458.45000	3.001E+4	
1458.9000	3.009E+4	
1459.35000	3.080E+4	
1459.8000	3.121E+4	
1460.25000	3.141E+4	
1460.7000	3.186E+4	
1461.15000	3.187E+4	
1461.6000	3.285E+4	
1462.05000	3.336E+4	
1462.5000	3.377E+4	
1462.95000	3.464E+4	
1463.4000	3.468E+4	
1463.85000	3.596E+4	
1464.3000	3.598E+4	
1464.75000	3.641E+4	
1465.2000	3.704E+4	
1465.65000	3.820E+4	
1466.1000	3.872E+4	
1466.55000	3.916E+4	
1467.000	4.015E+4	
1467.45000	4.097E+4	
1467.9000	4.176E+4	
1468.35000	4.268E+4	
1468.8000	4.302E+4	
1469.25000	4.450E+4	
1469.7000	4.472E+4	
1470.15000	4.592E+4	
1470.6000	4.691E+4	
1471.05000	4.755E+4	
1471.5000	4.859E+4	
1471.95000	4.951E+4	
1472.4000	5.068E+4	
1472.85000	5.156E+4	
1473.3000	5.198E+4	
1473.75000	5.341E+4	
1474.2000	5.416E+4	
1474.65000	5.509E+4	
1475.1000	5.637E+4	
1475.55000	5.690E+4	
1476.000	5.816E+4	
1476.45000	5.890E+4	
1476.9000	5.979E+4	
1477.35000	6.067E+4	
1477.8000	6.153E+4	
1478.25000	6.246E+4	
1478.7000	6.355E+4	
1479.15000	6.421E+4	
1479.6000	6.494E+4	
1480.05000	6.593E+4	
1480.5000	6.636E+4	
1480.95000	6.715E+4	
1481.4000	6.759E+4	
1481.85000	6.868E+4	
1482.3000	6.976E+4	
1482.75000	7.042E+4	
1483.2000	7.135E+4	
1483.65000	7.205E+4	
1484.1000	7.277E+4	
1484.55000	7.348E+4	
1485.000	7.361E+4	
1485.45000	7.484E+4	
1485.9000	7.549E+4	
1486.35000	7.563E+4	
1486.8000	7.690E+4	
1487.25000	7.708E+4	
1487.7000	7.818E+4	
1488.15000	7.870E+4	
1488.6000	7.962E+4	
1489.05000	7.959E+4	
1489.5000	8.042E+4	
1489.95000	8.132E+4	
1490.4000	8.154E+4	
1490.85000	8.229E+4	
1491.3000	8.293E+4	
1491.75000	8.340E+4	
1492.2000	8.398E+4	
1492.65000	8.431E+4	
1493.1000	8.494E+4	
1493.55000	8.514E+4	
1494.000	8.637E+4	
1494.45000	8.653E+4	
1494.9000	8.710E+4	
1495.35000	8.717E+4	
1495.8000	8.774E+4	
1496.25000	8.872E+4	
1496.7000	8.898E+4	
1497.15000	8.945E+4	
1497.6000	9.048E+4	
1498.05000	9.081E+4	
1498.5000	9.128E+4	
1498.95000	9.151E+4	
1499.4000	9.196E+4	
1499.85000	9.258E+4	
1500.3000	9.404E+4	
1500.75000	9.330E+4	
1501.2000	9.480E+4	
1501.65000	9.472E+4	
1502.1000	9.537E+4	
1502.55000	9.524E+4	
1503.000	9.607E+4	
1503.45000	9.662E+4	
1503.9000	9.685E+4	
1504.35000	9.677E+4	
1504.8000	9.761E+4	
1505.25000	9.799E+4	
1505.7000	9.890E+4	
1506.15000	9.899E+4	
1506.6000	9.936E+4	
1507.05000	9.983E+4	
1507.5000	1.009E+5	
1507.95000	1.009E+5	
1508.4000	1.016E+5	
1508.85000	1.012E+5	
1509.3000	1.019E+5	
1509.75000	1.027E+5	
1510.2000	1.025E+5	
1510.65000	1.031E+5	
1511.1000	1.039E+5	
1511.55000	1.045E+5	
1512.000	1.048E+5	
1512.45000	1.050E+5	
1512.9000	1.049E+5	
1513.35000	1.058E+5	
1513.8000	1.054E+5	
1514.25000	1.071E+5	
1514.7000	1.071E+5	
1515.15000	1.087E+5	
1515.6000	1.082E+5	
1516.05000	1.101E+5	
1516.5000	1.100E+5	
1516.95000	1.101E+5	
1517.4000	1.109E+5	
1517.85000	1.114E+5	
1518.3000	1.125E+5	
1518.75000	1.136E+5	
1519.2000	1.139E+5	
1519.65000	1.148E+5	
1520.1000	1.150E+5	
1520.55000	1.165E+5	
1521.000	1.175E+5	
1521.45000	1.179E+5	
1521.9000	1.185E+5	
1522.35000	1.195E+5	
1522.8000	1.205E+5	
1523.25000	1.211E+5	
1523.7000	1.225E+5	
1524.15000	1.235E+5	
1524.6000	1.234E+5	
1525.05000	1.252E+5	
1525.5000	1.260E+5	
1525.95000	1.271E+5	
1526.4000	1.284E+5	
1526.85000	1.287E+5	
1527.3000	1.298E+5	
1527.75000	1.297E+5	
1528.2000	1.320E+5	
1528.65000	1.311E+5	
1529.1000	1.326E+5	
1529.55000	1.322E+5	
1530.00	1.341E+5	
1530.45000	1.346E+5	
1530.9000	1.354E+5	
1531.35000	1.352E+5	
1531.8000	1.362E+5	
1532.25000	1.370E+5	
1532.7000	1.379E+5	
1533.15000	1.379E+5	
1533.6000	1.392E+5	
1534.05000	1.401E+5	
1534.5000	1.411E+5	
1534.95000	1.412E+5	
1535.4000	1.422E+5	
1535.85000	1.429E+5	
1536.3000	1.445E+5	
1536.75000	1.445E+5	
1537.2000	1.446E+5	
1537.65000	1.454E+5	
1538.1000	1.458E+5	
1538.55000	1.458E+5	
1539.000	1.464E+5	
1539.45000	1.465E+5	
1539.9000	1.470E+5	
1540.35000	1.476E+5	
1540.8000	1.471E+5	
1541.25000	1.480E+5	
1541.7000	1.485E+5	
1542.15000	1.484E+5	
1542.6000	1.490E+5	
1543.05000	1.494E+5	
1543.5000	1.489E+5	
1543.95000	1.497E+5	
1544.4000	1.494E+5	
1544.85000	1.489E+5	
1545.3000	1.489E+5	
1545.75000	1.492E+5	
1546.2000	1.497E+5	
1546.65000	1.484E+5	
1547.1000	1.482E+5	
1547.55000	1.487E+5	
1548.000	1.483E+5	
1548.45000	1.485E+5	
1548.9000	1.484E+5	
1549.35000	1.485E+5	
1549.8000	1.487E+5	
1550.25000	1.496E+5	
1550.7000	1.495E+5	
1551.15000	1.489E+5	
1551.6000	1.493E+5	
1552.05000	1.504E+5	
1552.5000	1.509E+5	
1552.95000	1.518E+5	
1553.4000	1.517E+5	
1553.85000	1.516E+5	
1554.3000	1.537E+5	
1554.75000	1.542E+5	
1555.2000	1.540E+5	
1555.65000	1.545E+5	
1556.1000	1.559E+5	
1556.55000	1.556E+5	
1557.000	1.551E+5	
1557.45000	1.564E+5	
1557.9000	1.557E+5	
1558.35000	1.559E+5	
1558.8000	1.559E+5	
1559.25000	1.549E+5	
1559.7000	1.548E+5	
1560.15000	1.538E+5	
1560.6000	1.533E+5	
1561.05000	1.527E+5	
1561.5000	1.519E+5	
1561.95000	1.507E+5	
1562.4000	1.491E+5	
1562.85000	1.491E+5	
1563.3000	1.479E+5	
1563.75000	1.467E+5	
1564.2000	1.459E+5	
1564.65000	1.448E+5	
1565.1000	1.443E+5	
1565.55000	1.437E+5	
1566.000	1.420E+5	
1566.45000	1.407E+5	
1566.9000	1.403E+5	
1567.35000	1.388E+5	
1567.8000	1.367E+5	
1568.25000	1.360E+5	
1568.7000	1.354E+5	
1569.15000	1.334E+5	
1569.6000	1.324E+5	
1570.05000	1.316E+5	
1570.5000	1.302E+5	
1570.95000	1.285E+5	
1571.4000	1.277E+5	
1571.85000	1.263E+5	
1572.3000	1.250E+5	
1572.75000	1.246E+5	
1573.2000	1.232E+5	
1573.65000	1.211E+5	
1574.1000	1.209E+5	
1574.55000	1.193E+5	
1575.000	1.182E+5	
1575.45000	1.175E+5	
1575.9000	1.173E+5	
1576.35000	1.161E+5	
1576.8000	1.154E+5	
1577.25000	1.148E+5	
1577.7000	1.145E+5	
1578.15000	1.138E+5	
1578.6000	1.131E+5	
1579.05000	1.130E+5	
1579.5000	1.130E+5	
1579.95000	1.121E+5	
1580.4000	1.119E+5	
1580.85000	1.116E+5	
1581.3000	1.113E+5	
1581.75000	1.110E+5	
1582.2000	1.107E+5	
1582.65000	1.103E+5	
1583.1000	1.102E+5	
1583.55000	1.100E+5	
1584.000	1.095E+5	
1584.45000	1.100E+5	
1584.9000	1.092E+5	
1585.35000	1.089E+5	
1585.8000	1.082E+5	
1586.25000	1.079E+5	
1586.7000	1.071E+5	
1587.15000	1.081E+5	
1587.6000	1.067E+5	
1588.05000	1.077E+5	
1588.5000	1.079E+5	
1588.95000	1.071E+5	
1589.4000	1.068E+5	
1589.85000	1.064E+5	
1590.3000	1.062E+5	
1590.75000	1.058E+5	
1591.2000	1.057E+5	
1591.65000	1.054E+5	
1592.1000	1.060E+5	
1592.55000	1.048E+5	
1593.000	1.046E+5	
1593.45000	1.052E+5	
1593.9000	1.050E+5	
1594.35000	1.042E+5	
1594.8000	1.047E+5	
1595.25000	1.038E+5	
1595.7000	1.038E+5	
1596.15000	1.035E+5	
1596.6000	1.035E+5	
1597.05000	1.029E+5	
1597.5000	1.018E+5	
1597.95000	1.018E+5	
1598.4000	1.011E+5	
1598.85000	1.013E+5	
1599.3000	1.010E+5	
1599.75000	1.006E+5	
1600.2000	9.959E+4	
1600.65000	9.908E+4	
1601.1000	9.939E+4	
1601.55000	9.890E+4	
1602.000	9.891E+4	
1602.45000	9.784E+4	
1602.9000	9.784E+4	
1603.35000	9.705E+4	
1603.8000	9.672E+4	
1604.25000	9.621E+4	
1604.7000	9.495E+4	
1605.15000	9.449E+4	
1605.6000	9.447E+4	
1606.05000	9.343E+4	
1606.5000	9.318E+4	
1606.95000	9.220E+4	
1607.4000	9.219E+4	
1607.85000	9.082E+4	
1608.3000	9.005E+4	
1608.75000	8.957E+4	
1609.2000	8.877E+4	
1609.65000	8.798E+4	
1610.1000	8.740E+4	
1610.55000	8.662E+4	
1611.000	8.574E+4	
1611.45000	8.433E+4	
1611.9000	8.352E+4	
1612.35000	8.246E+4	
1612.8000	8.198E+4	
1613.25000	8.081E+4	
1613.7000	7.943E+4	
1614.15000	7.859E+4	
1614.6000	7.678E+4	
1615.05000	7.663E+4	
1615.5000	7.464E+4	
1615.95000	7.318E+4	
1616.4000	7.187E+4	
1616.85000	7.062E+4	
1617.3000	6.966E+4	
1617.75000	6.809E+4	
1618.2000	6.661E+4	
1618.65000	6.629E+4	
1619.1000	6.402E+4	
1619.55000	6.270E+4	
1620.00	6.122E+4	
1620.45000	5.992E+4	
1620.9000	5.867E+4	
1621.35000	5.719E+4	
1621.8000	5.569E+4	
1622.25000	5.426E+4	
1622.7000	5.335E+4	
1623.15000	5.172E+4	
1623.6000	5.085E+4	
1624.05000	4.914E+4	
1624.5000	4.794E+4	
1624.95000	4.677E+4	
1625.4000	4.497E+4	
1625.85000	4.356E+4	
1626.3000	4.307E+4	
1626.75000	4.142E+4	
1627.2000	4.073E+4	
1627.65000	3.956E+4	
1628.1000	3.834E+4	
1628.55000	3.756E+4	
1629.000	3.678E+4	
1629.45000	3.549E+4	
1629.9000	3.506E+4	
1630.35000	3.443E+4	
1630.8000	3.397E+4	
1631.25000	3.366E+4	
1631.7000	3.279E+4	
1632.15000	3.186E+4	
1632.6000	3.119E+4	
1633.05000	3.071E+4	
1633.5000	3.067E+4	
1633.95000	2.950E+4	
1634.4000	2.896E+4	
1634.85000	2.835E+4	
1635.3000	2.822E+4	
1635.75000	2.751E+4	
1636.2000	2.764E+4	
1636.65000	2.713E+4	
1637.1000	2.650E+4	
1637.55000	2.671E+4	
1638.000	2.616E+4	
1638.45000	2.581E+4	
1638.9000	2.574E+4	
1639.35000	2.509E+4	
1639.8000	2.512E+4	
1640.25000	2.490E+4	
1640.7000	2.450E+4	
1641.15000	2.436E+4	
1641.6000	2.428E+4	
1642.05000	2.440E+4	
1642.5000	2.439E+4	
1642.95000	2.401E+4	
1643.4000	2.385E+4	
1643.85000	2.355E+4	
1644.3000	2.337E+4	
1644.75000	2.345E+4	
1645.2000	2.328E+4	
1645.65000	2.317E+4	
1646.1000	2.315E+4	
1646.55000	2.334E+4	
1647.000	2.338E+4	
1647.45000	2.290E+4	
1647.9000	2.280E+4	
1648.35000	2.283E+4	
1648.8000	2.264E+4	
1649.25000	2.286E+4	
1649.7000	2.269E+4	
1650.15000	2.271E+4	
1650.6000	2.236E+4	
1651.05000	2.251E+4	
1651.5000	2.272E+4	
1651.95000	2.249E+4	
1652.4000	2.259E+4	
1652.85000	2.252E+4	
1653.3000	2.237E+4	
1653.75000	2.226E+4	
1654.2000	2.214E+4	
1654.65000	2.194E+4	
1655.1000	2.199E+4	
1655.55000	2.213E+4	
1656.000	2.214E+4	
1656.45000	2.181E+4	
1656.9000	2.203E+4	
1657.35000	2.189E+4	
1657.8000	2.178E+4	
1658.25000	2.179E+4	
1658.7000	2.179E+4	
1659.15000	2.166E+4	
1659.6000	2.151E+4	
1660.05000	2.178E+4	
1660.5000	2.157E+4	
1660.95000	2.158E+4	
1661.4000	2.200E+4	
1661.85000	2.156E+4	
1662.3000	2.153E+4	
1662.75000	2.162E+4	
1663.2000	2.144E+4	
1663.65000	2.142E+4	
1664.1000	2.167E+4	
1664.55000	2.161E+4	
1665.000	2.169E+4	
1665.45000	2.189E+4	
1665.9000	2.165E+4	
1666.35000	2.154E+4	
1666.8000	2.130E+4	
1667.25000	2.155E+4	
1667.7000	2.119E+4	
1668.15000	2.166E+4	
1668.6000	2.162E+4	
1669.05000	2.143E+4	
1669.5000	2.148E+4	
1669.95000	2.158E+4	
1670.4000	2.140E+4	
1670.85000	2.162E+4	
1671.3000	2.147E+4	
1671.75000	2.186E+4	
1672.2000	2.165E+4	
1672.65000	2.171E+4	
1673.1000	2.156E+4	
1673.55000	2.143E+4	
1674.000	2.196E+4	
1674.45000	2.135E+4	
1674.9000	2.116E+4	
1675.35000	2.100E+4	
1675.8000	2.100E+4	
1676.25000	2.112E+4	
1676.7000	2.104E+4	
1677.15000	2.129E+4	
1677.6000	2.115E+4	
1678.05000	2.113E+4	
1678.5000	2.088E+4	
1678.95000	2.117E+4	
1679.4000	2.087E+4	
1679.85000	2.118E+4	
1680.3000	2.118E+4	
1680.75000	2.123E+4	
1681.2000	2.104E+4	
1681.65000	2.102E+4	
1682.1000	2.122E+4	
1682.55000	2.097E+4	
1683.000	2.087E+4	
1683.45000	2.108E+4	
1683.9000	2.078E+4	
1684.35000	2.126E+4	
1684.8000	2.076E+4	
1685.25000	2.128E+4	
1685.7000	2.093E+4	
1686.15000	2.064E+4	
1686.6000	2.099E+4	
1687.05000	2.099E+4	
1687.5000	2.076E+4	
1687.95000	2.079E+4	
1688.4000	2.062E+4	
1688.85000	2.082E+4	
1689.3000	2.084E+4	
1689.75000	2.103E+4	
1690.2000	2.092E+4	
1690.65000	2.125E+4	
1691.1000	2.100E+4	
1691.55000	2.106E+4	
1692.000	2.111E+4	
1692.45000	2.102E+4	
1692.9000	2.119E+4	
1693.35000	2.120E+4	
1693.8000	2.069E+4	
1694.25000	2.084E+4	
1694.7000	2.097E+4	
1695.15000	2.094E+4	
1695.6000	2.088E+4	
1696.05000	2.070E+4	
1696.5000	2.067E+4	
1696.95000	2.077E+4	
1697.4000	2.133E+4	
1697.85000	2.103E+4	
1698.3000	2.107E+4	
1698.75000	2.103E+4	
1699.2000	2.097E+4	
1699.65000	2.125E+4	
