PE UV       SUBTECH     SPECTRUM    ASCII       PEDS        4.00        
   -1
Green __Green Float.Sample.Raw.asc
17/06/21
15:16:47.00
17/06/21
15:16:47.00
Administrator

250.000000
1
Lambda 950
950L1205241
PerkinElmer UV WinLab 6.0.4.0738 / 1.61.00 Lambda 900

0
0
3350/servo 860.8/2
0
0
UV/VIS
1
1
1
DoublePol,CommonBeamDepol,RBeamAtt,SBeamAtt,uv/vis/nir detector
0
0
0
0
Program
Program
3350/servo 860.8/2
3350/0.2 860.8/0.2
3350/0.2 860.8/0.2
0
1
 
 
 
0
 
860.8
319.2
860.8
Front
100
on
S:100 R:100
0
0
0
0
 
0
 
 
 
0
 
 
0
0
0
0
0
 
 
 
 
0
0


0
0
#HDR
-1
-1
#GR
nm
%T
1.0
0.0
3300.000000
-1.000000
3051
8
91.286840
-0.003367
#DATA
3300.000000	62.961475
3299.000000	62.994564
3298.000000	62.944362
3297.000000	62.808657
3296.000000	62.624153
3295.000000	62.928698
3294.000000	62.954687
3293.000000	62.995110
3292.000000	63.027724
3291.000000	63.043688
3290.000000	63.117879
3289.000000	63.079957
3288.000000	63.022482
3287.000000	63.114236
3286.000000	63.104222
3285.000000	63.117967
3284.000000	63.175104
3283.000000	63.105868
3282.000000	63.188738
3281.000000	63.152830
3280.000000	63.155674
3279.000000	63.186129
3278.000000	63.158314
3277.000000	63.236730
3276.000000	63.259221
3275.000000	63.285322
3274.000000	63.357400
3273.000000	63.256786
3272.000000	63.237836
3271.000000	63.299278
3270.000000	63.368246
3269.000000	63.320114
3268.000000	63.344827
3267.000000	63.446243
3266.000000	63.388396
3265.000000	63.446532
3264.000000	63.384644
3263.000000	63.443876
3262.000000	63.468955
3261.000000	63.463242
3260.000000	63.514243
3259.000000	63.606027
3258.000000	63.512020
3257.000000	63.570834
3256.000000	63.587225
3255.000000	63.537946
3254.000000	63.579157
3253.000000	63.608425
3252.000000	63.638790
3251.000000	63.646711
3250.000000	63.662433
3249.000000	63.694834
3248.000000	63.683636
3247.000000	63.752232
3246.000000	63.727604
3245.000000	63.757313
3244.000000	63.768647
3243.000000	63.756556
3242.000000	63.784761
3241.000000	63.809406
3240.000000	63.841775
3239.000000	63.841540
3238.000000	63.893612
3237.000000	63.895973
3236.000000	63.900820
3235.000000	63.942169
3234.000000	63.909896
3233.000000	63.914995
3232.000000	63.940601
3231.000000	63.971983
3230.000000	64.011846
3229.000000	64.068943
3228.000000	64.053008
3227.000000	64.067694
3226.000000	64.071663
3225.000000	64.130979
3224.000000	64.142307
3223.000000	64.135674
3222.000000	64.162064
3221.000000	64.177465
3220.000000	64.208469
3219.000000	64.180846
3218.000000	64.180865
3217.000000	64.240128
3216.000000	64.228872
3215.000000	64.268010
3214.000000	64.274338
3213.000000	64.287261
3212.000000	64.355158
3211.000000	64.367544
3210.000000	64.356592
3209.000000	64.382877
3208.000000	64.391483
3207.000000	64.433505
3206.000000	64.441282
3205.000000	64.454091
3204.000000	64.477032
3203.000000	64.495377
3202.000000	64.542419
3201.000000	64.566123
3200.000000	64.590188
3199.000000	64.569658
3198.000000	64.565619
3197.000000	64.620054
3196.000000	64.651016
3195.000000	64.654225
3194.000000	64.654506
3193.000000	64.677970
3192.000000	64.660198
3191.000000	64.654061
3190.000000	64.710221
3189.000000	64.725110
3188.000000	64.744632
3187.000000	64.767944
3186.000000	64.755370
3185.000000	64.785582
3184.000000	64.822634
3183.000000	64.860407
3182.000000	64.875334
3181.000000	64.879504
3180.000000	64.912020
3179.000000	64.909610
3178.000000	64.904049
3177.000000	64.945733
3176.000000	64.959048
3175.000000	64.968688
3174.000000	64.981056
3173.000000	65.024400
3172.000000	65.057177
3171.000000	65.040541
3170.000000	65.064667
3169.000000	65.077331
3168.000000	65.079420
3167.000000	65.096378
3166.000000	65.143327
3165.000000	65.165973
3164.000000	65.150541
3163.000000	65.181004
3162.000000	65.206142
3161.000000	65.211612
3160.000000	65.246852
3159.000000	65.276595
3158.000000	65.308164
3157.000000	65.311365
3156.000000	65.304026
3155.000000	65.338253
3154.000000	65.359180
3153.000000	65.376159
3152.000000	65.383739
3151.000000	65.398167
3150.000000	65.428130
3149.000000	65.428353
3148.000000	65.454504
3147.000000	65.469252
3146.000000	65.474799
3145.000000	65.487563
3144.000000	65.493417
3143.000000	65.501968
3142.000000	65.523091
3141.000000	65.535012
3140.000000	65.543149
3139.000000	65.516092
3138.000000	65.545665
3137.000000	65.579157
3136.000000	65.589411
3135.000000	65.589244
3134.000000	65.609420
3133.000000	65.619676
3132.000000	65.624644
3131.000000	65.637112
3130.000000	65.654415
3129.000000	65.682218
3128.000000	65.706736
3127.000000	65.682688
3126.000000	65.692342
3125.000000	65.722969
3124.000000	65.718945
3123.000000	65.741008
3122.000000	65.772128
3121.000000	65.785432
3120.000000	65.793200
3119.000000	65.805183
3118.000000	65.800939
3117.000000	65.790731
3116.000000	65.813639
3115.000000	65.832062
3114.000000	65.856710
3113.000000	65.870062
3112.000000	65.850585
3111.000000	65.886899
3110.000000	65.900519
3109.000000	65.862711
3108.000000	65.883894
3107.000000	65.901392
3106.000000	65.915397
3105.000000	65.914500
3104.000000	65.946769
3103.000000	65.946156
3102.000000	65.935393
3101.000000	65.942275
3100.000000	65.959702
3099.000000	65.959945
3098.000000	65.985874
3097.000000	65.984352
3096.000000	65.988425
3095.000000	65.997491
3094.000000	65.993768
3093.000000	65.985191
3092.000000	65.991623
3091.000000	65.995755
3090.000000	66.001240
3089.000000	66.017990
3088.000000	66.030192
3087.000000	66.012112
3086.000000	66.032284
3085.000000	66.036763
3084.000000	66.020021
3083.000000	66.044221
3082.000000	66.044624
3081.000000	66.058603
3080.000000	66.061735
3079.000000	66.049716
3078.000000	66.053166
3077.000000	66.051512
3076.000000	66.057054
3075.000000	66.049926
3074.000000	66.060045
3073.000000	66.082798
3072.000000	66.086693
3071.000000	66.090229
3070.000000	66.093520
3069.000000	66.093486
3068.000000	66.102093
3067.000000	66.076459
3066.000000	66.093588
3065.000000	66.074288
3064.000000	66.076384
3063.000000	66.086580
3062.000000	66.093809
3061.000000	66.101485
3060.000000	66.088506
3059.000000	66.067708
3058.000000	66.080043
3057.000000	66.058206
3056.000000	66.079738
3055.000000	66.078367
3054.000000	66.062012
3053.000000	66.066182
3052.000000	66.073664
3051.000000	66.038936
3050.000000	66.075678
3049.000000	66.077726
3048.000000	66.054096
3047.000000	66.088381
3046.000000	66.047110
3045.000000	66.054790
3044.000000	66.049439
3043.000000	66.034756
3042.000000	66.031955
3041.000000	66.015264
3040.000000	66.028988
3039.000000	66.020702
3038.000000	66.024255
3037.000000	66.007446
3036.000000	66.025110
3035.000000	66.012978
3034.000000	65.973230
3033.000000	65.991551
3032.000000	65.983572
3031.000000	65.992754
3030.000000	65.991940
3029.000000	65.973466
3028.000000	65.972271
3027.000000	65.960014
3026.000000	65.946566
3025.000000	65.950188
3024.000000	65.942148
3023.000000	65.940977
3022.000000	65.929716
3021.000000	65.923907
3020.000000	65.924213
3019.000000	65.886081
3018.000000	65.883773
3017.000000	65.877840
3016.000000	65.873988
3015.000000	65.861531
3014.000000	65.839848
3013.000000	65.839830
3012.000000	65.818223
3011.000000	65.804281
3010.000000	65.788251
3009.000000	65.779218
3008.000000	65.788684
3007.000000	65.772903
3006.000000	65.758515
3005.000000	65.737733
3004.000000	65.720210
3003.000000	65.711285
3002.000000	65.703427
3001.000000	65.707350
3000.000000	65.695602
2999.000000	65.671318
2998.000000	65.650193
2997.000000	65.629092
2996.000000	65.609193
2995.000000	65.602217
2994.000000	65.583061
2993.000000	65.575102
2992.000000	65.565737
2991.000000	65.540726
2990.000000	65.534070
2989.000000	65.525654
2988.000000	65.515794
2987.000000	65.477261
2986.000000	65.475066
2985.000000	65.468880
2984.000000	65.449931
2983.000000	65.433673
2982.000000	65.431665
2981.000000	65.418917
2980.000000	65.402715
2979.000000	65.390489
2978.000000	65.373730
2977.000000	65.358842
2976.000000	65.347658
2975.000000	65.325354
2974.000000	65.300976
2973.000000	65.283474
2972.000000	65.270421
2971.000000	65.252913
2970.000000	65.231297
2969.000000	65.211912
2968.000000	65.193320
2967.000000	65.174730
2966.000000	65.155561
2965.000000	65.128888
2964.000000	65.111627
2963.000000	65.091625
2962.000000	65.067310
2961.000000	65.057346
2960.000000	65.042646
2959.000000	65.028189
2958.000000	65.010223
2957.000000	64.998926
2956.000000	64.983264
2955.000000	64.966607
2954.000000	64.955116
2953.000000	64.963549
2952.000000	64.990389
2951.000000	65.001698
2950.000000	64.991853
2949.000000	64.957366
2948.000000	64.912842
2947.000000	64.873340
2946.000000	64.843902
2945.000000	64.825215
2944.000000	64.807608
2943.000000	64.800309
2942.000000	64.794860
2941.000000	64.760272
2940.000000	64.724895
2939.000000	64.703143
2938.000000	64.699153
2937.000000	64.685153
2936.000000	64.658310
2935.000000	64.643314
2934.000000	64.625759
2933.000000	64.605276
2932.000000	64.581217
2931.000000	64.559555
2930.000000	64.545360
2929.000000	64.525345
2928.000000	64.508428
2927.000000	64.490232
2926.000000	64.461518
2925.000000	64.445285
2924.000000	64.431367
2923.000000	64.404748
2922.000000	64.378400
2921.000000	64.352746
2920.000000	64.335751
2919.000000	64.334741
2918.000000	64.316638
2917.000000	64.289715
2916.000000	64.263928
2915.000000	64.247554
2914.000000	64.248131
2913.000000	64.235052
2912.000000	64.198540
2911.000000	64.173990
2910.000000	64.168996
2909.000000	64.163445
2908.000000	64.137370
2907.000000	64.115607
2906.000000	64.103315
2905.000000	64.082507
2904.000000	64.054785
2903.000000	64.025878
2902.000000	64.004900
2901.000000	63.990978
2900.000000	63.967667
2899.000000	63.951154
2898.000000	63.943060
2897.000000	63.924895
2896.000000	63.907027
2895.000000	63.916952
2894.000000	63.898054
2893.000000	63.882549
2892.000000	63.869565
2891.000000	63.840205
2890.000000	63.824855
2889.000000	63.826551
2888.000000	63.816596
2887.000000	63.804777
2886.000000	63.790461
2885.000000	63.792069
2884.000000	63.778479
2883.000000	63.763318
2882.000000	63.746850
2881.000000	63.738393
2880.000000	63.723155
2879.000000	63.711732
2878.000000	63.700562
2877.000000	63.683410
2876.000000	63.684168
2875.000000	63.677680
2874.000000	63.664950
2873.000000	63.660772
2872.000000	63.649277
2871.000000	63.643908
2870.000000	63.631641
2869.000000	63.616716
2868.000000	63.603026
2867.000000	63.587246
2866.000000	63.594951
2865.000000	63.607185
2864.000000	63.607285
2863.000000	63.607235
2862.000000	63.617198
2861.000000	63.615413
2860.000000	63.608003
2859.000000	63.630260
2858.000000	63.628753
2857.000000	63.622728
2856.000000	63.636070
2855.000000	63.615121
2854.000000	63.599401
2853.000000	63.600344
2852.000000	63.594666
2851.000000	63.582685
2850.000000	63.596946
2849.000000	63.587575
2848.000000	63.603968
2847.000000	63.623799
2846.000000	63.642159
2845.000000	63.646820
2844.000000	63.661370
2843.000000	63.665137
2842.000000	63.679309
2841.000000	63.701349
2840.000000	63.715567
2839.000000	63.732454
2838.000000	63.745294
2837.000000	63.738782
2836.000000	63.735262
2835.000000	63.756093
2834.000000	63.756646
2833.000000	63.769594
2832.000000	63.790043
2831.000000	63.774321
2830.000000	63.838949
2829.000000	63.880437
2828.000000	63.908372
2827.000000	63.958786
2826.000000	64.012304
2825.000000	64.041993
2824.000000	64.052572
2823.000000	64.105858
2822.000000	64.177861
2821.000000	64.169187
2820.000000	64.193355
2819.000000	64.243525
2818.000000	64.274391
2817.000000	64.316893
2816.000000	64.337344
2815.000000	64.418919
2814.000000	64.483880
2813.000000	64.509352
2812.000000	64.533114
2811.000000	64.601183
2810.000000	64.667503
2809.000000	64.721367
2808.000000	64.785693
2807.000000	64.882383
2806.000000	64.922776
2805.000000	64.984754
2804.000000	65.041043
2803.000000	65.150234
2802.000000	65.256584
2801.000000	65.375157
2800.000000	65.479418
2799.000000	65.582783
2798.000000	65.700333
2797.000000	65.801041
2796.000000	65.910423
2795.000000	66.006257
2794.000000	66.092327
2793.000000	66.194150
2792.000000	66.290600
2791.000000	66.390628
2790.000000	66.512181
2789.000000	66.624861
2788.000000	66.709182
2787.000000	66.801075
2786.000000	66.915360
2785.000000	67.044039
2784.000000	67.196345
2783.000000	67.351019
2782.000000	67.579009
2781.000000	67.745303
2780.000000	67.914098
2779.000000	68.099020
2778.000000	68.265519
2777.000000	68.435119
2776.000000	68.581258
2775.000000	68.731562
2774.000000	68.886203
2773.000000	69.091832
2772.000000	69.283699
2771.000000	69.482029
2770.000000	69.634040
2769.000000	69.810697
2768.000000	70.003652
2767.000000	70.221656
2766.000000	70.459139
2765.000000	70.705631
2764.000000	70.961624
2763.000000	71.211036
2762.000000	71.487714
2761.000000	71.823643
2760.000000	72.142774
2759.000000	72.480133
2758.000000	72.770041
2757.000000	73.089200
2756.000000	73.447280
2755.000000	73.807750
2754.000000	74.177552
2753.000000	74.510581
2752.000000	74.857926
2751.000000	75.178884
2750.000000	75.494154
2749.000000	75.800364
2748.000000	76.073560
2747.000000	76.296822
2746.000000	76.479057
2745.000000	76.662209
2744.000000	76.887299
2743.000000	77.154596
2742.000000	77.447490
2741.000000	77.770967
2740.000000	78.159632
2739.000000	78.581148
2738.000000	79.043523
2737.000000	79.561886
2736.000000	80.081051
2735.000000	80.523868
2734.000000	80.969535
2733.000000	81.292408
2732.000000	81.527828
2731.000000	81.725383
2730.000000	81.935260
2729.000000	82.135660
2728.000000	82.342297
2727.000000	82.554186
2726.000000	82.730183
2725.000000	82.893393
2724.000000	83.080659
2723.000000	83.325114
2722.000000	83.615508
2721.000000	83.959110
2720.000000	84.342301
2719.000000	84.732772
2718.000000	85.101356
2717.000000	85.449129
2716.000000	85.745262
2715.000000	86.027784
2714.000000	86.277256
2713.000000	86.478559
2712.000000	86.665348
2711.000000	86.863519
2710.000000	87.051417
2709.000000	87.219911
2708.000000	87.389672
2707.000000	87.569865
2706.000000	87.706936
2705.000000	87.867149
2704.000000	88.008774
2703.000000	88.116127
2702.000000	88.194000
2701.000000	88.244351
2700.000000	88.312275
2699.000000	88.383559
2698.000000	88.459020
2697.000000	88.548472
2696.000000	88.639380
2695.000000	88.693529
2694.000000	88.737505
2693.000000	88.788109
2692.000000	88.835450
2691.000000	88.866544
2690.000000	88.868696
2689.000000	88.893962
2688.000000	88.894218
2687.000000	88.907457
2686.000000	88.929454
2685.000000	88.961010
2684.000000	89.025750
2683.000000	89.063216
2682.000000	89.099432
2681.000000	89.128021
2680.000000	89.165177
2679.000000	89.203621
2678.000000	89.251919
2677.000000	89.299283
2676.000000	89.348323
2675.000000	89.356598
2674.000000	89.359864
2673.000000	89.395533
2672.000000	89.443403
2671.000000	89.495556
2670.000000	89.556873
2669.000000	89.600951
2668.000000	89.639271
2667.000000	89.690872
2666.000000	89.743662
2665.000000	89.777006
2664.000000	89.763834
2663.000000	89.796313
2662.000000	89.851262
2661.000000	89.867679
2660.000000	89.884274
2659.000000	89.891429
2658.000000	89.881434
2657.000000	89.869536
2656.000000	89.870579
2655.000000	89.862797
2654.000000	89.853224
2653.000000	89.833679
2652.000000	89.806104
2651.000000	89.780266
2650.000000	89.759369
2649.000000	89.745450
2648.000000	89.744665
2647.000000	89.738178
2646.000000	89.728936
2645.000000	89.744248
2644.000000	89.732558
2643.000000	89.744304
2642.000000	89.736459
2641.000000	89.772203
2640.000000	89.777587
2639.000000	89.800386
2638.000000	89.815174
2637.000000	89.827521
2636.000000	89.857534
2635.000000	89.874869
2634.000000	89.881198
2633.000000	89.863539
2632.000000	89.844969
2631.000000	89.833770
2630.000000	89.816562
2629.000000	89.793209
2628.000000	89.801368
2627.000000	89.860418
2626.000000	89.845218
2625.000000	89.865457
2624.000000	89.906323
2623.000000	89.933137
2622.000000	89.953672
2621.000000	89.966773
2620.000000	89.981208
2619.000000	89.973757
2618.000000	89.954309
2617.000000	89.929690
2616.000000	89.938476
2615.000000	89.961394
2614.000000	89.983302
2613.000000	90.017916
2612.000000	90.039272
2611.000000	90.064348
2610.000000	90.096344
2609.000000	90.128655
2608.000000	90.157204
2607.000000	90.183935
2606.000000	90.197455
2605.000000	90.216560
2604.000000	90.208802
2603.000000	90.216081
2602.000000	90.214845
2601.000000	90.192284
2600.000000	90.177512
2599.000000	90.147143
2598.000000	90.133104
2597.000000	90.113712
2596.000000	90.093047
2595.000000	90.080700
2594.000000	90.064987
2593.000000	90.034311
2592.000000	90.029478
2591.000000	90.027165
2590.000000	90.050122
2589.000000	90.049243
2588.000000	90.049208
2587.000000	90.042086
2586.000000	89.968578
2585.000000	90.009920
2584.000000	90.049805
2583.000000	90.062825
2582.000000	90.058279
2581.000000	89.980516
2580.000000	90.029911
2579.000000	90.037207
2578.000000	90.017994
2577.000000	90.046265
2576.000000	90.038585
2575.000000	90.068547
2574.000000	90.074418
2573.000000	90.115576
2572.000000	90.157510
2571.000000	90.132796
2570.000000	90.119380
2569.000000	90.143540
2568.000000	90.125284
2567.000000	90.130515
2566.000000	90.064440
2565.000000	90.043256
2564.000000	90.030732
2563.000000	90.024532
2562.000000	89.992810
2561.000000	90.004512
2560.000000	90.012491
2559.000000	90.050796
2558.000000	90.068393
2557.000000	90.076856
2556.000000	90.068249
2555.000000	90.063939
2554.000000	90.053255
2553.000000	90.066448
2552.000000	90.037436
2551.000000	90.023000
2550.000000	89.998651
2549.000000	90.002466
2548.000000	90.031605
2547.000000	90.032572
2546.000000	90.058961
2545.000000	90.069917
2544.000000	90.085925
2543.000000	90.076415
2542.000000	89.967744
2541.000000	90.074298
2540.000000	90.118086
2539.000000	90.114791
2538.000000	90.113277
2537.000000	90.136887
2536.000000	90.160323
2535.000000	90.142140
2534.000000	90.122107
2533.000000	90.089396
2532.000000	90.063346
2531.000000	90.050361
2530.000000	89.967657
2529.000000	90.026906
2528.000000	90.042303
2527.000000	90.102435
2526.000000	90.101335
2525.000000	90.108212
2524.000000	90.109964
2523.000000	90.120192
2522.000000	90.121185
2521.000000	90.131768
2520.000000	90.164087
2519.000000	90.166779
2518.000000	90.186632
2517.000000	90.187075
2516.000000	90.177867
2515.000000	90.177505
2514.000000	90.158702
2513.000000	90.116202
2512.000000	90.120074
2511.000000	90.134939
2510.000000	90.153174
2509.000000	90.156577
2508.000000	90.149005
2507.000000	90.165535
2506.000000	90.164685
2505.000000	90.175237
2504.000000	90.201702
2503.000000	90.174541
2502.000000	90.173239
2501.000000	90.183305
2500.000000	90.183907
2499.000000	90.183911
2498.000000	90.188483
2497.000000	90.219352
2496.000000	90.216016
2495.000000	90.216088
2494.000000	90.233059
2493.000000	90.236229
2492.000000	90.220187
2491.000000	90.222040
2490.000000	90.215392
2489.000000	90.201676
2488.000000	90.209123
2487.000000	90.218299
2486.000000	90.233176
2485.000000	90.219142
2484.000000	90.209975
2483.000000	90.229125
2482.000000	90.250492
2481.000000	90.246685
2480.000000	90.260634
2479.000000	90.260601
2478.000000	90.272160
2477.000000	90.264000
2476.000000	90.273636
2475.000000	90.287182
2474.000000	90.294543
2473.000000	90.284879
2472.000000	90.297717
2471.000000	90.278672
2470.000000	90.283456
2469.000000	90.280003
2468.000000	90.260512
2467.000000	90.264083
2466.000000	90.274400
2465.000000	90.305179
2464.000000	90.313710
2463.000000	90.312415
2462.000000	90.303103
2461.000000	90.323173
2460.000000	90.319520
2459.000000	90.305988
2458.000000	90.309607
2457.000000	90.317503
2456.000000	90.333663
2455.000000	90.339963
2454.000000	90.349940
2453.000000	90.355233
2452.000000	90.364410
2451.000000	90.353459
2450.000000	90.365288
2449.000000	90.369221
2448.000000	90.383198
2447.000000	90.382920
2446.000000	90.374659
2445.000000	90.376194
2444.000000	90.379449
2443.000000	90.387317
2442.000000	90.389027
2441.000000	90.400973
2440.000000	90.400099
2439.000000	90.410853
2438.000000	90.414711
2437.000000	90.404858
2436.000000	90.409332
2435.000000	90.415887
2434.000000	90.423107
2433.000000	90.416885
2432.000000	90.434136
2431.000000	90.438085
2430.000000	90.449140
2429.000000	90.460202
2428.000000	90.463508
2427.000000	90.474542
2426.000000	90.477025
2425.000000	90.482349
2424.000000	90.482600
2423.000000	90.485806
2422.000000	90.491984
2421.000000	90.511259
2420.000000	90.513447
2419.000000	90.513148
2418.000000	90.513816
2417.000000	90.514341
2416.000000	90.519123
2415.000000	90.513040
2414.000000	90.523775
2413.000000	90.531057
2412.000000	90.532464
2411.000000	90.527528
2410.000000	90.541755
2409.000000	90.559755
2408.000000	90.550504
2407.000000	90.557848
2406.000000	90.560185
2405.000000	90.554177
2404.000000	90.552892
2403.000000	90.560256
2402.000000	90.564414
2401.000000	90.553276
2400.000000	90.559172
2399.000000	90.569481
2398.000000	90.566384
2397.000000	90.556278
2396.000000	90.553711
2395.000000	90.565149
2394.000000	90.569616
2393.000000	90.571523
2392.000000	90.560429
2391.000000	90.575048
2390.000000	90.568246
2389.000000	90.556224
2388.000000	90.567536
2387.000000	90.574403
2386.000000	90.576632
2385.000000	90.574169
2384.000000	90.584476
2383.000000	90.600477
2382.000000	90.595564
2381.000000	90.601403
2380.000000	90.605020
2379.000000	90.600073
2378.000000	90.596037
2377.000000	90.575709
2376.000000	90.572600
2375.000000	90.581277
2374.000000	90.592212
2373.000000	90.597607
2372.000000	90.598920
2371.000000	90.592471
2370.000000	90.579193
2369.000000	90.588740
2368.000000	90.592133
2367.000000	90.587592
2366.000000	90.585212
2365.000000	90.595870
2364.000000	90.601772
2363.000000	90.597182
2362.000000	90.605826
2361.000000	90.604474
2360.000000	90.594558
2359.000000	90.606365
2358.000000	90.589887
2357.000000	90.592677
2356.000000	90.613141
2355.000000	90.597722
2354.000000	90.613907
2353.000000	90.602158
2352.000000	90.600583
2351.000000	90.603138
2350.000000	90.596106
2349.000000	90.597191
2348.000000	90.578264
2347.000000	90.591193
2346.000000	90.588141
2345.000000	90.603862
2344.000000	90.589245
2343.000000	90.591651
2342.000000	90.603481
2341.000000	90.598093
2340.000000	90.608555
2339.000000	90.621290
2338.000000	90.612326
2337.000000	90.605745
2336.000000	90.601280
2335.000000	90.585022
2334.000000	90.591039
2333.000000	90.582259
2332.000000	90.577072
2331.000000	90.573959
2330.000000	90.565088
2329.000000	90.588194
2328.000000	90.572615
2327.000000	90.567429
2326.000000	90.570039
2325.000000	90.559180
2324.000000	90.577936
2323.000000	90.549663
2322.000000	90.558955
2321.000000	90.569744
2320.000000	90.550662
2319.000000	90.559326
2318.000000	90.543411
2317.000000	90.549877
2316.000000	90.557151
2315.000000	90.539324
2314.000000	90.531561
2313.000000	90.550600
2312.000000	90.528198
2311.000000	90.538436
2310.000000	90.545139
2309.000000	90.538188
2308.000000	90.544299
2307.000000	90.517676
2306.000000	90.523742
2305.000000	90.523669
2304.000000	90.511689
2303.000000	90.534222
2302.000000	90.527915
2301.000000	90.502728
2300.000000	90.513941
2299.000000	90.513454
2298.000000	90.501470
2297.000000	90.502046
2296.000000	90.480269
2295.000000	90.505557
2294.000000	90.487933
2293.000000	90.475283
2292.000000	90.499113
2291.000000	90.479962
2290.000000	90.475908
2289.000000	90.480498
2288.000000	90.461616
2287.000000	90.492112
2286.000000	90.467909
2285.000000	90.452679
2284.000000	90.483838
2283.000000	90.457310
2282.000000	90.449133
2281.000000	90.490654
2280.000000	90.445227
2279.000000	90.468280
2278.000000	90.460772
2277.000000	90.451377
2276.000000	90.453528
2275.000000	90.422501
2274.000000	90.430934
2273.000000	90.434698
2272.000000	90.443067
2271.000000	90.418372
2270.000000	90.438859
2269.000000	90.426771
2268.000000	90.404936
2267.000000	90.422154
2266.000000	90.411633
2265.000000	90.410590
2264.000000	90.405747
2263.000000	90.399419
2262.000000	90.395223
2261.000000	90.379685
2260.000000	90.366180
2259.000000	90.373125
2258.000000	90.351812
2257.000000	90.362014
2256.000000	90.357105
2255.000000	90.355277
2254.000000	90.339109
2253.000000	90.344671
2252.000000	90.353002
2251.000000	90.352568
2250.000000	90.352153
2249.000000	90.319111
2248.000000	90.325849
2247.000000	90.307034
2246.000000	90.303247
2245.000000	90.310909
2244.000000	90.331456
2243.000000	90.318302
2242.000000	90.299543
2241.000000	90.300207
2240.000000	90.301608
2239.000000	90.301402
2238.000000	90.283117
2237.000000	90.267582
2236.000000	90.278898
2235.000000	90.292347
2234.000000	90.278572
2233.000000	90.272226
2232.000000	90.265871
2231.000000	90.264197
2230.000000	90.262732
2229.000000	90.269195
2228.000000	90.257972
2227.000000	90.264412
2226.000000	90.259420
2225.000000	90.263603
2224.000000	90.250471
2223.000000	90.244837
2222.000000	90.235984
2221.000000	90.249333
2220.000000	90.245726
2219.000000	90.249740
2218.000000	90.255692
2217.000000	90.250157
2216.000000	90.239658
2215.000000	90.247240
2214.000000	90.241112
2213.000000	90.243130
2212.000000	90.252787
2211.000000	90.266984
2210.000000	90.277615
2209.000000	90.283201
2208.000000	90.268079
2207.000000	90.275820
2206.000000	90.291167
2205.000000	90.286837
2204.000000	90.293584
2203.000000	90.296586
2202.000000	90.314142
2201.000000	90.320266
2200.000000	90.315030
2199.000000	90.322858
2198.000000	90.323908
2197.000000	90.335892
2196.000000	90.343157
2195.000000	90.353520
2194.000000	90.376906
2193.000000	90.383255
2192.000000	90.395618
2191.000000	90.404658
2190.000000	90.403536
2189.000000	90.410915
2188.000000	90.427938
2187.000000	90.443405
2186.000000	90.443861
2185.000000	90.448842
2184.000000	90.465837
2183.000000	90.466597
2182.000000	90.461313
2181.000000	90.483278
2180.000000	90.502677
2179.000000	90.497468
2178.000000	90.505449
2177.000000	90.512699
2176.000000	90.519073
2175.000000	90.532028
2174.000000	90.548284
2173.000000	90.544322
2172.000000	90.549632
2171.000000	90.561604
2170.000000	90.568594
2169.000000	90.573461
2168.000000	90.579996
2167.000000	90.585143
2166.000000	90.585169
2165.000000	90.587577
2164.000000	90.587495
2163.000000	90.603392
2162.000000	90.622548
2161.000000	90.622139
2160.000000	90.609577
2159.000000	90.601715
2158.000000	90.595368
2157.000000	90.614330
2156.000000	90.627552
2155.000000	90.634361
2154.000000	90.636244
2153.000000	90.631100
2152.000000	90.627419
2151.000000	90.618428
2150.000000	90.620564
2149.000000	90.629769
2148.000000	90.626963
2147.000000	90.620774
2146.000000	90.626042
2145.000000	90.625855
2144.000000	90.625912
2143.000000	90.642664
2142.000000	90.639854
2141.000000	90.635963
2140.000000	90.645864
2139.000000	90.646222
2138.000000	90.637404
2137.000000	90.663584
2136.000000	90.658514
2135.000000	90.648378
2134.000000	90.662291
2133.000000	90.662786
2132.000000	90.669218
2131.000000	90.688613
2130.000000	90.671972
2129.000000	90.656444
2128.000000	90.674058
2127.000000	90.662403
2126.000000	90.656480
2125.000000	90.658502
2124.000000	90.669632
2123.000000	90.668470
2122.000000	90.657186
2121.000000	90.662110
2120.000000	90.666607
2119.000000	90.659551
2118.000000	90.660931
2117.000000	90.666525
2116.000000	90.682307
2115.000000	90.670264
2114.000000	90.660033
2113.000000	90.675847
2112.000000	90.662908
2111.000000	90.666898
2110.000000	90.691290
2109.000000	90.678087
2108.000000	90.671164
2107.000000	90.666570
2106.000000	90.659762
2105.000000	90.655282
2104.000000	90.650920
2103.000000	90.670647
2102.000000	90.688246
2101.000000	90.658337
2100.000000	90.654890
2099.000000	90.649704
2098.000000	90.654460
2097.000000	90.656284
2096.000000	90.649419
2095.000000	90.649751
2094.000000	90.652303
2093.000000	90.666947
2092.000000	90.672457
2091.000000	90.669666
2090.000000	90.662866
2089.000000	90.662130
2088.000000	90.647891
2087.000000	90.666975
2086.000000	90.661700
2085.000000	90.650519
2084.000000	90.651490
2083.000000	90.663173
2082.000000	90.664443
2081.000000	90.650656
2080.000000	90.655617
2079.000000	90.663665
2078.000000	90.660717
2077.000000	90.647500
2076.000000	90.638386
2075.000000	90.646896
2074.000000	90.645890
2073.000000	90.639379
2072.000000	90.647985
2071.000000	90.628445
2070.000000	90.639750
2069.000000	90.635853
2068.000000	90.642765
2067.000000	90.659022
2066.000000	90.651099
2065.000000	90.641827
2064.000000	90.626072
2063.000000	90.624867
2062.000000	90.648606
2061.000000	90.660890
2060.000000	90.644524
2059.000000	90.642796
2058.000000	90.653291
2057.000000	90.651370
2056.000000	90.630889
2055.000000	90.631063
2054.000000	90.634063
2053.000000	90.629545
2052.000000	90.636768
2051.000000	90.622332
2050.000000	90.630345
2049.000000	90.654514
2048.000000	90.660090
2047.000000	90.630558
2046.000000	90.628539
2045.000000	90.640575
2044.000000	90.622097
2043.000000	90.634729
2042.000000	90.620394
2041.000000	90.646810
2040.000000	90.638703
2039.000000	90.623474
2038.000000	90.628638
2037.000000	90.609609
2036.000000	90.638377
2035.000000	90.637646
2034.000000	90.626483
2033.000000	90.621335
2032.000000	90.592019
2031.000000	90.588678
2030.000000	90.609408
2029.000000	90.608146
2028.000000	90.620061
2027.000000	90.607395
2026.000000	90.601534
2025.000000	90.603964
2024.000000	90.618747
2023.000000	90.624658
2022.000000	90.598928
2021.000000	90.608989
2020.000000	90.592810
2019.000000	90.604730
2018.000000	90.629954
2017.000000	90.607614
2016.000000	90.598321
2015.000000	90.602860
2014.000000	90.613005
2013.000000	90.604062
2012.000000	90.619377
2011.000000	90.600605
2010.000000	90.616826
2009.000000	90.598698
2008.000000	90.583753
2007.000000	90.592863
2006.000000	90.612792
2005.000000	90.625046
2004.000000	90.598669
2003.000000	90.597423
2002.000000	90.576895
2001.000000	90.576259
2000.000000	90.582381
1999.000000	90.604269
1998.000000	90.603693
1997.000000	90.576974
1996.000000	90.591156
1995.000000	90.598672
1994.000000	90.598322
1993.000000	90.594757
1992.000000	90.614486
1991.000000	90.602673
1990.000000	90.585969
1989.000000	90.575033
1988.000000	90.597444
1987.000000	90.614412
1986.000000	90.625113
1985.000000	90.612406
1984.000000	90.623843
1983.000000	90.618914
1982.000000	90.609034
1981.000000	90.613569
1980.000000	90.633390
1979.000000	90.610665
1978.000000	90.581347
1977.000000	90.584725
1976.000000	90.587758
1975.000000	90.597254
1974.000000	90.596562
1973.000000	90.594035
1972.000000	90.611101
1971.000000	90.592397
1970.000000	90.586841
1969.000000	90.595175
1968.000000	90.584437
1967.000000	90.577761
1966.000000	90.593038
1965.000000	90.604061
1964.000000	90.594870
1963.000000	90.576792
1962.000000	90.575520
1961.000000	90.575135
1960.000000	90.592093
1959.000000	90.594041
1958.000000	90.578498
1957.000000	90.573989
1956.000000	90.582408
1955.000000	90.584465
1954.000000	90.578523
1953.000000	90.589611
1952.000000	90.574706
1951.000000	90.576613
1950.000000	90.563879
1949.000000	90.566066
1948.000000	90.617973
1947.000000	90.579009
1946.000000	90.572706
1945.000000	90.595867
1944.000000	90.637624
1943.000000	90.582580
1942.000000	90.572289
1941.000000	90.587853
1940.000000	90.594336
1939.000000	90.600409
1938.000000	90.590621
1937.000000	90.580888
1936.000000	90.584349
1935.000000	90.597775
1934.000000	90.599795
1933.000000	90.610277
1932.000000	90.615529
1931.000000	90.560258
1930.000000	90.558154
1929.000000	90.608042
1928.000000	90.600666
1927.000000	90.575523
1926.000000	90.566669
1925.000000	90.571110
1924.000000	90.596525
1923.000000	90.629934
1922.000000	90.670676
1921.000000	90.691293
1920.000000	90.629639
1919.000000	90.612019
1918.000000	90.584974
1917.000000	90.575419
1916.000000	90.607363
1915.000000	90.643097
1914.000000	90.642685
1913.000000	90.613896
1912.000000	90.582836
1911.000000	90.562570
1910.000000	90.522149
1909.000000	90.537699
1908.000000	90.615890
1907.000000	90.635750
1906.000000	90.649708
1905.000000	90.669069
1904.000000	90.634839
1903.000000	90.589071
1902.000000	90.602648
1901.000000	90.630631
1900.000000	90.672266
1899.000000	90.689675
1898.000000	90.647377
1897.000000	90.603854
1896.000000	90.589298
1895.000000	90.611360
1894.000000	90.653431
1893.000000	90.682082
1892.000000	90.679998
1891.000000	90.643996
1890.000000	90.617833
1889.000000	90.612076
1888.000000	90.605396
1887.000000	90.614059
1886.000000	90.601622
1885.000000	90.604430
1884.000000	90.636572
1883.000000	90.653457
1882.000000	90.628792
1881.000000	90.605787
1880.000000	90.642585
1879.000000	90.644924
1878.000000	90.650402
1877.000000	90.670226
1876.000000	90.687522
1875.000000	90.672693
1874.000000	90.645422
1873.000000	90.655812
1872.000000	90.672693
1871.000000	90.660255
1870.000000	90.520822
1869.000000	90.553399
1868.000000	90.601043
1867.000000	90.650133
1866.000000	90.638591
1865.000000	90.625851
1864.000000	90.639110
1863.000000	90.663279
1862.000000	90.667026
1861.000000	90.671536
1860.000000	90.619099
1859.000000	90.623321
1858.000000	90.612376
1857.000000	90.586678
1856.000000	90.552625
1855.000000	90.643141
1854.000000	90.695096
1853.000000	90.696573
1852.000000	90.658326
1851.000000	90.630383
1850.000000	90.649821
1849.000000	90.681792
1848.000000	90.765158
1847.000000	90.737448
1846.000000	90.645569
1845.000000	90.645628
1844.000000	90.633532
1843.000000	90.722627
1842.000000	90.801412
1841.000000	90.804630
1840.000000	90.676640
1839.000000	90.614751
1838.000000	90.596349
1837.000000	90.672824
1836.000000	90.676415
1835.000000	90.646401
1834.000000	90.588621
1833.000000	90.638664
1832.000000	90.680425
1831.000000	90.709387
1830.000000	90.677040
1829.000000	90.645432
1828.000000	90.616735
1827.000000	90.630047
1826.000000	90.642837
1825.000000	90.659353
1824.000000	90.636798
1823.000000	90.640507
1822.000000	90.731777
1821.000000	90.768773
1820.000000	90.735350
1819.000000	90.637334
1818.000000	90.598776
1817.000000	90.614382
1816.000000	90.662144
1815.000000	90.717020
1814.000000	90.699391
1813.000000	90.700915
1812.000000	90.673016
1811.000000	90.685677
1810.000000	90.671428
1809.000000	90.750379
1808.000000	90.646391
1807.000000	90.561482
1806.000000	90.672503
1805.000000	90.678192
1804.000000	90.675353
1803.000000	90.676607
1802.000000	90.659871
1801.000000	90.676927
1800.000000	90.673872
1799.000000	90.556024
1798.000000	90.641221
1797.000000	90.666693
1796.000000	90.709683
1795.000000	90.713105
1794.000000	90.709769
1793.000000	90.665833
1792.000000	90.686934
1791.000000	90.685510
1790.000000	90.668700
1789.000000	90.644566
1788.000000	90.672292
1787.000000	90.667725
1786.000000	90.689057
1785.000000	90.685349
1784.000000	90.709133
1783.000000	90.678825
1782.000000	90.698290
1781.000000	90.690980
1780.000000	90.672527
1779.000000	90.690663
1778.000000	90.709638
1777.000000	90.691068
1776.000000	90.693530
1775.000000	90.679442
1774.000000	90.696307
1773.000000	90.690809
1772.000000	90.679945
1771.000000	90.679329
1770.000000	90.678818
1769.000000	90.678594
1768.000000	90.682974
1767.000000	90.681739
1766.000000	90.678276
1765.000000	90.691653
1764.000000	90.708002
1763.000000	90.714264
1762.000000	90.708141
1761.000000	90.705263
1760.000000	90.686237
1759.000000	90.688726
1758.000000	90.722599
1757.000000	90.696464
1756.000000	90.694374
1755.000000	90.718649
1754.000000	90.711329
1753.000000	90.697795
1752.000000	90.701995
1751.000000	90.694148
1750.000000	90.694535
1749.000000	90.697820
1748.000000	90.721856
1747.000000	90.699395
1746.000000	90.704557
1745.000000	90.703495
1744.000000	90.696873
1743.000000	90.701722
1742.000000	90.693740
1741.000000	90.675439
1740.000000	90.675592
1739.000000	90.694457
1738.000000	90.715052
1737.000000	90.705934
1736.000000	90.690057
1735.000000	90.703295
1734.000000	90.705700
1733.000000	90.686259
1732.000000	90.694814
1731.000000	90.707158
1730.000000	90.727699
1729.000000	90.719004
1728.000000	90.718486
1727.000000	90.715112
1726.000000	90.702449
1725.000000	90.705371
1724.000000	90.716771
1723.000000	90.727814
1722.000000	90.713291
1721.000000	90.706680
1720.000000	90.719350
1719.000000	90.724559
1718.000000	90.725068
1717.000000	90.715155
1716.000000	90.716196
1715.000000	90.720591
1714.000000	90.716699
1713.000000	90.712279
1712.000000	90.723571
1711.000000	90.710627
1710.000000	90.700483
1709.000000	90.703013
1708.000000	90.692331
1707.000000	90.702994
1706.000000	90.711060
1705.000000	90.716082
1704.000000	90.710798
1703.000000	90.713236
1702.000000	90.700531
1701.000000	90.696750
1700.000000	90.697485
1699.000000	90.691239
1698.000000	90.696854
1697.000000	90.689141
1696.000000	90.689832
1695.000000	90.703901
1694.000000	90.702024
1693.000000	90.682374
1692.000000	90.686136
1691.000000	90.685672
1690.000000	90.679502
1689.000000	90.681195
1688.000000	90.676014
1687.000000	90.679568
1686.000000	90.680097
1685.000000	90.680668
1684.000000	90.694111
1683.000000	90.696481
1682.000000	90.698304
1681.000000	90.705059
1680.000000	90.693244
1679.000000	90.688006
1678.000000	90.687194
1677.000000	90.678197
1676.000000	90.678042
1675.000000	90.680011
1674.000000	90.663736
1673.000000	90.654608
1672.000000	90.660082
1671.000000	90.657796
1670.000000	90.662290
1669.000000	90.684478
1668.000000	90.691776
1667.000000	90.685979
1666.000000	90.666965
1665.000000	90.665230
1664.000000	90.670330
1663.000000	90.665646
1662.000000	90.661905
1661.000000	90.660823
1660.000000	90.659060
1659.000000	90.656211
1658.000000	90.659063
1657.000000	90.672862
1656.000000	90.673540
1655.000000	90.663029
1654.000000	90.659041
1653.000000	90.644920
1652.000000	90.648262
1651.000000	90.650569
1650.000000	90.654498
1649.000000	90.656064
1648.000000	90.640860
1647.000000	90.625649
1646.000000	90.623547
1645.000000	90.625020
1644.000000	90.614901
1643.000000	90.623425
1642.000000	90.647592
1641.000000	90.646567
1640.000000	90.628580
1639.000000	90.621824
1638.000000	90.622768
1637.000000	90.613423
1636.000000	90.618362
1635.000000	90.621241
1634.000000	90.612395
1633.000000	90.615146
1632.000000	90.613298
1631.000000	90.598752
1630.000000	90.596520
1629.000000	90.596023
1628.000000	90.592480
1627.000000	90.589292
1626.000000	90.593818
1625.000000	90.583318
1624.000000	90.581540
1623.000000	90.593893
1622.000000	90.606779
1621.000000	90.600589
1620.000000	90.578454
1619.000000	90.564140
1618.000000	90.559065
1617.000000	90.558676
1616.000000	90.571023
1615.000000	90.564687
1614.000000	90.563433
1613.000000	90.556417
1612.000000	90.558925
1611.000000	90.547033
1610.000000	90.548297
1609.000000	90.547116
1608.000000	90.545523
1607.000000	90.545827
1606.000000	90.540365
1605.000000	90.525545
1604.000000	90.513029
1603.000000	90.516479
1602.000000	90.525136
1601.000000	90.531255
1600.000000	90.527701
1599.000000	90.523315
1598.000000	90.530520
1597.000000	90.523868
1596.000000	90.520209
1595.000000	90.521368
1594.000000	90.510775
1593.000000	90.478623
1592.000000	90.473165
1591.000000	90.476261
1590.000000	90.491865
1589.000000	90.480705
1588.000000	90.470217
1587.000000	90.491800
1586.000000	90.479178
1585.000000	90.495743
1584.000000	90.490829
1583.000000	90.480391
1582.000000	90.462144
1581.000000	90.463456
1580.000000	90.467787
1579.000000	90.463710
1578.000000	90.455041
1577.000000	90.451785
1576.000000	90.448187
1575.000000	90.434781
1574.000000	90.414748
1573.000000	90.406446
1572.000000	90.400891
1571.000000	90.393075
1570.000000	90.400058
1569.000000	90.423511
1568.000000	90.411544
1567.000000	90.413900
1566.000000	90.410066
1565.000000	90.396122
1564.000000	90.391745
1563.000000	90.386118
1562.000000	90.378484
1561.000000	90.363793
1560.000000	90.374581
1559.000000	90.369195
1558.000000	90.365789
1557.000000	90.354009
1556.000000	90.369658
1555.000000	90.367035
1554.000000	90.369409
1553.000000	90.343499
1552.000000	90.347621
1551.000000	90.338486
1550.000000	90.340902
1549.000000	90.332985
1548.000000	90.338850
1547.000000	90.332107
1546.000000	90.300332
1545.000000	90.307037
1544.000000	90.284529
1543.000000	90.274613
1542.000000	90.297666
1541.000000	90.284206
1540.000000	90.277080
1539.000000	90.270103
1538.000000	90.277252
1537.000000	90.262684
1536.000000	90.253364
1535.000000	90.259020
1534.000000	90.271503
1533.000000	90.256620
1532.000000	90.252410
1531.000000	90.245274
1530.000000	90.269118
1529.000000	90.270713
1528.000000	90.235671
1527.000000	90.198004
1526.000000	90.208369
1525.000000	90.222943
1524.000000	90.220725
1523.000000	90.231890
1522.000000	90.223756
1521.000000	90.220428
1520.000000	90.200436
1519.000000	90.183752
1518.000000	90.176623
1517.000000	90.171916
1516.000000	90.167844
1515.000000	90.158262
1514.000000	90.149510
1513.000000	90.159855
1512.000000	90.146554
1511.000000	90.152977
1510.000000	90.160789
1509.000000	90.148977
1508.000000	90.134401
1507.000000	90.127655
1506.000000	90.131805
1505.000000	90.115689
1504.000000	90.097545
1503.000000	90.067815
1502.000000	90.078688
1501.000000	90.070448
1500.000000	90.086583
1499.000000	90.080603
1498.000000	90.090713
1497.000000	90.071604
1496.000000	90.058882
1495.000000	90.055315
1494.000000	90.065509
1493.000000	90.054030
1492.000000	90.039927
1491.000000	90.023774
1490.000000	90.011933
1489.000000	90.017191
1488.000000	90.008717
1487.000000	90.002665
1486.000000	90.017784
1485.000000	89.987570
1484.000000	89.989618
1483.000000	89.967138
1482.000000	89.971565
1481.000000	89.963334
1480.000000	89.967544
1479.000000	90.004842
1478.000000	89.954286
1477.000000	89.945358
1476.000000	89.946552
1475.000000	89.938657
1474.000000	89.945532
1473.000000	89.972983
1472.000000	89.939285
1471.000000	89.945909
1470.000000	89.928444
1469.000000	89.859883
1468.000000	89.874596
1467.000000	89.872387
1466.000000	89.858860
1465.000000	89.855328
1464.000000	89.868939
1463.000000	89.853679
1462.000000	89.862725
1461.000000	89.836596
1460.000000	89.857425
1459.000000	89.857266
1458.000000	89.848215
1457.000000	89.822512
1456.000000	89.809969
1455.000000	89.830582
1454.000000	89.848841
1453.000000	89.802713
1452.000000	89.785007
1451.000000	89.783988
1450.000000	89.811236
1449.000000	89.858731
1448.000000	89.790969
1447.000000	89.769817
1446.000000	89.772800
1445.000000	89.754749
1444.000000	89.727340
1443.000000	89.732678
1442.000000	89.736533
1441.000000	89.711517
1440.000000	89.709745
1439.000000	89.699483
1438.000000	89.684575
1437.000000	89.700920
1436.000000	89.694284
1435.000000	89.674309
1434.000000	89.668063
1433.000000	89.651703
1432.000000	89.657204
1431.000000	89.698864
1430.000000	89.728411
1429.000000	89.619660
1428.000000	89.582145
1427.000000	89.614952
1426.000000	89.602847
1425.000000	89.591517
1424.000000	89.583532
1423.000000	89.585482
1422.000000	89.584982
1421.000000	89.567384
1420.000000	89.619859
1419.000000	89.667443
1418.000000	89.560654
1417.000000	89.515708
1416.000000	89.516717
1415.000000	89.564643
1414.000000	89.597392
1413.000000	89.538882
1412.000000	89.484218
1411.000000	89.478091
1410.000000	89.525302
1409.000000	89.557046
1408.000000	89.507641
1407.000000	89.468306
1406.000000	89.465330
1405.000000	89.596712
1404.000000	89.638176
1403.000000	89.482994
1402.000000	89.447200
1401.000000	89.505925
1400.000000	89.533528
1399.000000	89.438719
1398.000000	89.375040
1397.000000	89.420424
1396.000000	89.524215
1395.000000	89.535635
1394.000000	89.435965
1393.000000	89.385972
1392.000000	89.410172
1391.000000	89.436177
1390.000000	89.428546
1389.000000	89.430769
1388.000000	89.466020
1387.000000	89.444230
1386.000000	89.393744
1385.000000	89.386453
1384.000000	89.417868
1383.000000	89.149381
1382.000000	89.205534
1381.000000	89.372880
1380.000000	89.515865
1379.000000	89.464346
1378.000000	89.326955
1377.000000	89.371699
1376.000000	89.406058
1375.000000	89.405296
1374.000000	89.380245
1373.000000	89.369738
1372.000000	89.368365
1371.000000	89.369405
1370.000000	89.305136
1369.000000	89.282597
1368.000000	89.309559
1367.000000	89.316418
1366.000000	89.300705
1365.000000	89.305275
1364.000000	89.316549
1363.000000	89.287885
1362.000000	89.301240
1361.000000	89.264875
1360.000000	89.218476
1359.000000	89.168138
1358.000000	89.203075
1357.000000	89.258562
1356.000000	89.297650
1355.000000	89.289304
1354.000000	89.296412
1353.000000	89.149826
1352.000000	89.159351
1351.000000	89.254554
1350.000000	89.197881
1349.000000	89.193172
1348.000000	89.217997
1347.000000	89.211549
1346.000000	89.201982
1345.000000	89.186898
1344.000000	89.172845
1343.000000	89.154079
1342.000000	89.145072
1341.000000	89.154791
1340.000000	89.177422
1339.000000	89.166722
1338.000000	89.152287
1337.000000	89.139473
1336.000000	89.143556
1335.000000	89.127109
1334.000000	89.131943
1333.000000	89.107934
1332.000000	89.083305
1331.000000	89.091065
1330.000000	89.091996
1329.000000	89.097154
1328.000000	89.097424
1327.000000	89.091933
1326.000000	89.065607
1325.000000	89.049750
1324.000000	89.062892
1323.000000	89.074728
1322.000000	89.083440
1321.000000	89.071358
1320.000000	89.062825
1319.000000	89.051667
1318.000000	89.030833
1317.000000	89.034628
1316.000000	89.041379
1315.000000	89.003385
1314.000000	89.003627
1313.000000	89.013639
1312.000000	89.002875
1311.000000	88.982169
1310.000000	88.993002
1309.000000	88.997595
1308.000000	88.999119
1307.000000	89.002966
1306.000000	88.981790
1305.000000	88.978803
1304.000000	88.963021
1303.000000	88.944623
1302.000000	88.961168
1301.000000	88.957955
1300.000000	88.948804
1299.000000	88.938694
1298.000000	88.919975
1297.000000	88.913807
1296.000000	88.920273
1295.000000	88.927225
1294.000000	88.906572
1293.000000	88.890023
1292.000000	88.899249
1291.000000	88.924635
1290.000000	88.928234
1289.000000	88.914627
1288.000000	88.898251
1287.000000	88.886725
1286.000000	88.865948
1285.000000	88.864704
1284.000000	88.861905
1283.000000	88.856646
1282.000000	88.862023
1281.000000	88.864883
1280.000000	88.847340
1279.000000	88.840416
1278.000000	88.824710
1277.000000	88.818251
1276.000000	88.814662
1275.000000	88.823706
1274.000000	88.815917
1273.000000	88.799832
1272.000000	88.806672
1271.000000	88.798101
1270.000000	88.799163
1269.000000	88.783335
1268.000000	88.793608
1267.000000	88.800410
1266.000000	88.766407
1265.000000	88.766862
1264.000000	88.782490
1263.000000	88.777029
1262.000000	88.794959
1261.000000	88.785760
1260.000000	88.785296
1259.000000	88.778580
1258.000000	88.771464
1257.000000	88.753806
1256.000000	88.736197
1255.000000	88.731764
1254.000000	88.707864
1253.000000	88.729922
1252.000000	88.735675
1251.000000	88.734759
1250.000000	88.748974
1249.000000	88.742583
1248.000000	88.724919
1247.000000	88.723714
1246.000000	88.711425
1245.000000	88.721001
1244.000000	88.688040
1243.000000	88.707571
1242.000000	88.706200
1241.000000	88.684405
1240.000000	88.694394
1239.000000	88.688964
1238.000000	88.693716
1237.000000	88.700657
1236.000000	88.714582
1235.000000	88.696148
1234.000000	88.700421
1233.000000	88.680595
1232.000000	88.670238
1231.000000	88.658668
1230.000000	88.673991
1229.000000	88.671970
1228.000000	88.641431
1227.000000	88.649207
1226.000000	88.649236
1225.000000	88.643052
1224.000000	88.629640
1223.000000	88.632651
1222.000000	88.635027
1221.000000	88.636006
1220.000000	88.620202
1219.000000	88.627225
1218.000000	88.628374
1217.000000	88.627202
1216.000000	88.617619
1215.000000	88.622602
1214.000000	88.592500
1213.000000	88.594885
1212.000000	88.597518
1211.000000	88.606756
1210.000000	88.607559
1209.000000	88.612552
1208.000000	88.583048
1207.000000	88.588068
1206.000000	88.595644
1205.000000	88.601367
1204.000000	88.592432
1203.000000	88.582971
1202.000000	88.584471
1201.000000	88.580090
1200.000000	88.576763
1199.000000	88.557728
1198.000000	88.562420
1197.000000	88.562941
1196.000000	88.573410
1195.000000	88.567364
1194.000000	88.561667
1193.000000	88.544567
1192.000000	88.535541
1191.000000	88.536911
1190.000000	88.542116
1189.000000	88.558333
1188.000000	88.555025
1187.000000	88.539785
1186.000000	88.532468
1185.000000	88.533977
1184.000000	88.509090
1183.000000	88.497639
1182.000000	88.512712
1181.000000	88.525663
1180.000000	88.528669
1179.000000	88.539541
1178.000000	88.537233
1177.000000	88.538169
1176.000000	88.526965
1175.000000	88.522108
1174.000000	88.521752
1173.000000	88.521545
1172.000000	88.519622
1171.000000	88.502779
1170.000000	88.502957
1169.000000	88.494967
1168.000000	88.485094
1167.000000	88.489587
1166.000000	88.469626
1165.000000	88.458043
1164.000000	88.464667
1163.000000	88.457473
1162.000000	88.476832
1161.000000	88.489354
1160.000000	88.472632
1159.000000	88.469220
1158.000000	88.476033
1157.000000	88.468503
1156.000000	88.455539
1155.000000	88.463394
1154.000000	88.474597
1153.000000	88.470879
1152.000000	88.469127
1151.000000	88.475912
1150.000000	88.472192
1149.000000	88.465812
1148.000000	88.465674
1147.000000	88.465219
1146.000000	88.451656
1145.000000	88.418433
1144.000000	88.429516
1143.000000	88.449122
1142.000000	88.426796
1141.000000	88.422593
1140.000000	88.436404
1139.000000	88.441692
1138.000000	88.437507
1137.000000	88.442867
1136.000000	88.443167
1135.000000	88.388302
1134.000000	88.390056
1133.000000	88.382970
1132.000000	88.401486
1131.000000	88.452650
1130.000000	88.494472
1129.000000	88.462922
1128.000000	88.418185
1127.000000	88.419244
1126.000000	88.404711
1125.000000	88.375865
1124.000000	88.413778
1123.000000	88.451563
1122.000000	88.440208
1121.000000	88.426464
1120.000000	88.419613
1119.000000	88.417541
1118.000000	88.422684
1117.000000	88.433772
1116.000000	88.442231
1115.000000	88.437093
1114.000000	88.427556
1113.000000	88.420893
1112.000000	88.429284
1111.000000	88.422162
1110.000000	88.393243
1109.000000	88.384326
1108.000000	88.409717
1107.000000	88.419903
1106.000000	88.426046
1105.000000	88.425425
1104.000000	88.407243
1103.000000	88.395792
1102.000000	88.403964
1101.000000	88.409265
1100.000000	88.415261
1099.000000	88.412063
1098.000000	88.412685
1097.000000	88.413439
1096.000000	88.395199
1095.000000	88.375003
1094.000000	88.366487
1093.000000	88.360361
1092.000000	88.378466
1091.000000	88.393572
1090.000000	88.397307
1089.000000	88.397474
1088.000000	88.401951
1087.000000	88.400478
1086.000000	88.393889
1085.000000	88.374961
1084.000000	88.358301
1083.000000	88.375779
1082.000000	88.379489
1081.000000	88.388525
1080.000000	88.395686
1079.000000	88.392085
1078.000000	88.383610
1077.000000	88.392184
1076.000000	88.374768
1075.000000	88.371752
1074.000000	88.371207
1073.000000	88.387495
1072.000000	88.402631
1071.000000	88.404659
1070.000000	88.406882
1069.000000	88.381360
1068.000000	88.375310
1067.000000	88.362757
1066.000000	88.371799
1065.000000	88.388359
1064.000000	88.388307
1063.000000	88.390889
1062.000000	88.394505
1061.000000	88.382943
1060.000000	88.386945
1059.000000	88.392901
1058.000000	88.364504
1057.000000	88.361126
1056.000000	88.365383
1055.000000	88.360865
1054.000000	88.359344
1053.000000	88.375901
1052.000000	88.397511
1051.000000	88.357058
1050.000000	88.369692
1049.000000	88.357865
1048.000000	88.379469
1047.000000	88.397941
1046.000000	88.398001
1045.000000	88.405002
1044.000000	88.403294
1043.000000	88.410104
1042.000000	88.398908
1041.000000	88.391643
1040.000000	88.400126
1039.000000	88.404512
1038.000000	88.381525
1037.000000	88.376023
1036.000000	88.378422
1035.000000	88.383515
1034.000000	88.390175
1033.000000	88.413888
1032.000000	88.396959
1031.000000	88.397927
1030.000000	88.400980
1029.000000	88.409839
1028.000000	88.393795
1027.000000	88.394364
1026.000000	88.377814
1025.000000	88.388100
1024.000000	88.372891
1023.000000	88.403712
1022.000000	88.413300
1021.000000	88.425563
1020.000000	88.387257
1019.000000	88.378343
1018.000000	88.389068
1017.000000	88.395031
1016.000000	88.402953
1015.000000	88.399415
1014.000000	88.411486
1013.000000	88.435063
1012.000000	88.391142
1011.000000	88.390777
1010.000000	88.410602
1009.000000	88.403792
1008.000000	88.394584
1007.000000	88.400527
1006.000000	88.402948
1005.000000	88.426554
1004.000000	88.425295
1003.000000	88.433351
1002.000000	88.408542
1001.000000	88.429473
1000.000000	88.422191
999.000000	88.439166
998.000000	88.410119
997.000000	88.414687
996.000000	88.429355
995.000000	88.438937
994.000000	88.448509
993.000000	88.442114
992.000000	88.446919
991.000000	88.432545
990.000000	88.422580
989.000000	88.439868
988.000000	88.405869
987.000000	88.421609
986.000000	88.449820
985.000000	88.450919
984.000000	88.442280
983.000000	88.453568
982.000000	88.459630
981.000000	88.468941
980.000000	88.456663
979.000000	88.448710
978.000000	88.458580
977.000000	88.482665
976.000000	88.471584
975.000000	88.472905
974.000000	88.486379
973.000000	88.495667
972.000000	88.490297
971.000000	88.485076
970.000000	88.510708
969.000000	88.493267
968.000000	88.475320
967.000000	88.469395
966.000000	88.506591
965.000000	88.499807
964.000000	88.484310
963.000000	88.480117
962.000000	88.486169
961.000000	88.481031
960.000000	88.524103
959.000000	88.543551
958.000000	88.546966
957.000000	88.542889
956.000000	88.530649
955.000000	88.529618
954.000000	88.521153
953.000000	88.548194
952.000000	88.565718
951.000000	88.548887
950.000000	88.532195
949.000000	88.517113
948.000000	88.548691
947.000000	88.559762
946.000000	88.572378
945.000000	88.584010
944.000000	88.563742
943.000000	88.554724
942.000000	88.566176
941.000000	88.586430
940.000000	88.599281
939.000000	88.577532
938.000000	88.593844
937.000000	88.596114
936.000000	88.598063
935.000000	88.600493
934.000000	88.585610
933.000000	88.595060
932.000000	88.600404
931.000000	88.626642
930.000000	88.629069
929.000000	88.638095
928.000000	88.634318
927.000000	88.624564
926.000000	88.645270
925.000000	88.664160
924.000000	88.628559
923.000000	88.621714
922.000000	88.653784
921.000000	88.644585
920.000000	88.629951
919.000000	88.676892
918.000000	88.696016
917.000000	88.701393
916.000000	88.675604
915.000000	88.662454
914.000000	88.677009
913.000000	88.692393
912.000000	88.686218
911.000000	88.720489
910.000000	88.685074
909.000000	88.687066
908.000000	88.686930
907.000000	88.706237
906.000000	88.738866
905.000000	88.725354
904.000000	88.749924
903.000000	88.744633
902.000000	88.699846
901.000000	88.727271
900.000000	88.782077
899.000000	88.812879
898.000000	88.807232
897.000000	88.762638
896.000000	88.755701
895.000000	88.791108
894.000000	88.788075
893.000000	88.792843
892.000000	88.812323
891.000000	88.803501
890.000000	88.838036
889.000000	88.856111
888.000000	88.817988
887.000000	88.817835
886.000000	88.797444
885.000000	88.803738
884.000000	88.829064
883.000000	88.858485
882.000000	88.865192
881.000000	88.853681
880.000000	88.855116
879.000000	88.863235
878.000000	88.863337
877.000000	88.851593
876.000000	88.841838
875.000000	88.879408
874.000000	88.902937
873.000000	88.903575
872.000000	88.943148
871.000000	88.936883
870.000000	88.923888
869.000000	88.930547
868.000000	88.940794
867.000000	88.949704
866.000000	88.941076
865.000000	88.948017
864.000000	88.961225
863.000000	88.968991
862.000000	88.981447
861.000000	88.993174
860.000000	88.760647
859.000000	88.611624
858.000000	88.703094
857.000000	88.678353
856.000000	88.627253
855.000000	88.660450
854.000000	88.637850
853.000000	88.654020
852.000000	88.654638
851.000000	88.621927
850.000000	88.609978
849.000000	88.712415
848.000000	88.748354
847.000000	88.670111
846.000000	88.659099
845.000000	88.692461
844.000000	88.712204
843.000000	88.751643
842.000000	88.741393
841.000000	88.743849
840.000000	88.752047
839.000000	88.696787
838.000000	88.742052
837.000000	88.790665
836.000000	88.781019
835.000000	88.804296
834.000000	88.819537
833.000000	88.793576
832.000000	88.784551
831.000000	88.847437
830.000000	88.855617
829.000000	88.844169
828.000000	88.838897
827.000000	88.865585
826.000000	88.897659
825.000000	88.906971
824.000000	88.917502
823.000000	88.884594
822.000000	88.894689
821.000000	88.883429
820.000000	88.919670
819.000000	88.940634
818.000000	88.971560
817.000000	88.933356
816.000000	88.981237
815.000000	88.974670
814.000000	88.949886
813.000000	88.978832
812.000000	89.013585
811.000000	89.012082
810.000000	89.020026
809.000000	89.044271
808.000000	88.988367
807.000000	89.046964
806.000000	89.038056
805.000000	89.063653
804.000000	89.131432
803.000000	89.106115
802.000000	89.087207
801.000000	89.111586
800.000000	89.094847
799.000000	89.105679
798.000000	89.150076
797.000000	89.169900
796.000000	89.144716
795.000000	89.191968
794.000000	89.114082
793.000000	89.144117
792.000000	89.194466
791.000000	89.228638
790.000000	89.188713
789.000000	89.235068
788.000000	89.262954
787.000000	89.220025
786.000000	89.295507
785.000000	89.301397
784.000000	89.267964
783.000000	89.293564
782.000000	89.290668
781.000000	89.293292
780.000000	89.328630
779.000000	89.358183
778.000000	89.366982
777.000000	89.370902
776.000000	89.375888
775.000000	89.356556
774.000000	89.390134
773.000000	89.395636
772.000000	89.444446
771.000000	89.444427
770.000000	89.415460
769.000000	89.465183
768.000000	89.467982
767.000000	89.441184
766.000000	89.441769
765.000000	89.510896
764.000000	89.482724
763.000000	89.513458
762.000000	89.567245
761.000000	89.580376
760.000000	89.528455
759.000000	89.561776
758.000000	89.511632
757.000000	89.558061
756.000000	89.563024
755.000000	89.629619
754.000000	89.612989
753.000000	89.675709
752.000000	89.690372
751.000000	89.624635
750.000000	89.647167
749.000000	89.669581
748.000000	89.611852
747.000000	89.701602
746.000000	89.752930
745.000000	89.735172
744.000000	89.754036
743.000000	89.739446
742.000000	89.723172
741.000000	89.774876
740.000000	89.802946
739.000000	89.781907
738.000000	89.811714
737.000000	89.859816
736.000000	89.812171
735.000000	89.863482
734.000000	89.859550
733.000000	89.855739
732.000000	89.925638
731.000000	89.917079
730.000000	89.855686
729.000000	89.904701
728.000000	89.941733
727.000000	89.947729
726.000000	89.993945
725.000000	89.983304
724.000000	89.935904
723.000000	89.996605
722.000000	89.955052
721.000000	89.992827
720.000000	90.072708
719.000000	90.119952
718.000000	90.044317
717.000000	90.025197
716.000000	90.027947
715.000000	90.053446
714.000000	90.125666
713.000000	90.078788
712.000000	90.082765
711.000000	90.148041
710.000000	90.117157
709.000000	90.158435
708.000000	90.174218
707.000000	90.140676
706.000000	90.148315
705.000000	90.157811
704.000000	90.186021
703.000000	90.231371
702.000000	90.251677
701.000000	90.231124
700.000000	90.216836
699.000000	90.229956
698.000000	90.253447
697.000000	90.257663
696.000000	90.291788
695.000000	90.299445
694.000000	90.303323
693.000000	90.304936
692.000000	90.318777
691.000000	90.349660
690.000000	90.382161
689.000000	90.364783
688.000000	90.344510
687.000000	90.397328
686.000000	90.387945
685.000000	90.388001
684.000000	90.405430
683.000000	90.431152
682.000000	90.413405
681.000000	90.455228
680.000000	90.467734
679.000000	90.440243
678.000000	90.463400
677.000000	90.470066
676.000000	90.425359
675.000000	90.450952
674.000000	90.497886
673.000000	90.499126
672.000000	90.533150
671.000000	90.530726
670.000000	90.490894
669.000000	90.509967
668.000000	90.527037
667.000000	90.560984
666.000000	90.591176
665.000000	90.586784
664.000000	90.563248
663.000000	90.611101
662.000000	90.582697
661.000000	90.573521
660.000000	90.612747
659.000000	90.595542
658.000000	90.577915
657.000000	90.615544
656.000000	90.629421
655.000000	90.655765
654.000000	90.680964
653.000000	90.656705
652.000000	90.616649
651.000000	90.669709
650.000000	90.682932
649.000000	90.698325
648.000000	90.764819
647.000000	90.754956
646.000000	90.732326
645.000000	90.738137
644.000000	90.749715
643.000000	90.734390
642.000000	90.755254
641.000000	90.771672
640.000000	90.773730
639.000000	90.803017
638.000000	90.803267
637.000000	90.823914
636.000000	90.840349
635.000000	90.785925
634.000000	90.773321
633.000000	90.805908
632.000000	90.822459
631.000000	90.850997
630.000000	90.868914
629.000000	90.877177
628.000000	90.878797
627.000000	90.869844
626.000000	90.877128
625.000000	90.905110
624.000000	90.914618
623.000000	90.892814
622.000000	90.916614
621.000000	90.943976
620.000000	90.940081
619.000000	90.955158
618.000000	90.953363
617.000000	90.936902
616.000000	90.940334
615.000000	90.956032
614.000000	90.968154
613.000000	91.019253
612.000000	91.048270
611.000000	91.013514
610.000000	90.982634
609.000000	90.985763
608.000000	90.983339
607.000000	91.007546
606.000000	91.059105
605.000000	91.047630
604.000000	91.026618
603.000000	91.037841
602.000000	91.041051
601.000000	91.063085
600.000000	91.097984
599.000000	91.059392
598.000000	91.044898
597.000000	91.084078
596.000000	91.087698
595.000000	91.118278
594.000000	91.130430
593.000000	91.088053
592.000000	91.090894
591.000000	91.093163
590.000000	91.072588
589.000000	91.111446
588.000000	91.135703
587.000000	91.096910
586.000000	91.110475
585.000000	91.129760
584.000000	91.115610
583.000000	91.157511
582.000000	91.164910
581.000000	91.143003
580.000000	91.154834
579.000000	91.158223
578.000000	91.154813
577.000000	91.174896
576.000000	91.191439
575.000000	91.173244
574.000000	91.173801
573.000000	91.160868
572.000000	91.187425
571.000000	91.223930
570.000000	91.221232
569.000000	91.180411
568.000000	91.202261
567.000000	91.216396
566.000000	91.236486
565.000000	91.232323
564.000000	91.224065
563.000000	91.240656
562.000000	91.239724
561.000000	91.249520
560.000000	91.237385
559.000000	91.245154
558.000000	91.230455
557.000000	91.229291
556.000000	91.272025
555.000000	91.264231
554.000000	91.230353
553.000000	91.233048
552.000000	91.244282
551.000000	91.236268
550.000000	91.272003
549.000000	91.286840
548.000000	91.234859
547.000000	91.245183
546.000000	91.240490
545.000000	91.226297
544.000000	91.270816
543.000000	91.281431
542.000000	91.252688
541.000000	91.272463
540.000000	91.278353
539.000000	91.256236
538.000000	91.263685
537.000000	91.261984
536.000000	91.242789
535.000000	91.241596
534.000000	91.276369
533.000000	91.279031
532.000000	91.237443
531.000000	91.275060
530.000000	91.250578
529.000000	91.220021
528.000000	91.225609
527.000000	91.223293
526.000000	91.261451
525.000000	91.253356
524.000000	91.226657
523.000000	91.253780
522.000000	91.268687
521.000000	91.251000
520.000000	91.254474
519.000000	91.245339
518.000000	91.210030
517.000000	91.227851
516.000000	91.250119
515.000000	91.227933
514.000000	91.253003
513.000000	91.275936
512.000000	91.186804
511.000000	91.198391
510.000000	91.224278
509.000000	91.177876
508.000000	91.170191
507.000000	91.191313
506.000000	91.182406
505.000000	91.167183
504.000000	91.171635
503.000000	91.139022
502.000000	91.167013
501.000000	91.157191
500.000000	91.145722
499.000000	91.151649
498.000000	91.140395
497.000000	91.148011
496.000000	91.142657
495.000000	91.113953
494.000000	91.087172
493.000000	91.071621
492.000000	91.088029
491.000000	91.112788
490.000000	91.090664
489.000000	91.097328
488.000000	91.082726
487.000000	91.020542
486.000000	91.025970
485.000000	91.047608
484.000000	91.071079
483.000000	91.052436
482.000000	91.044022
481.000000	91.052777
480.000000	91.024187
479.000000	91.032399
478.000000	91.021169
477.000000	91.032562
476.000000	90.994040
475.000000	90.987902
474.000000	91.009184
473.000000	91.016976
472.000000	90.969514
471.000000	90.980389
470.000000	90.967917
469.000000	90.937217
468.000000	90.945755
467.000000	90.922769
466.000000	90.922331
465.000000	90.987168
464.000000	90.888281
463.000000	90.882144
462.000000	90.863904
461.000000	90.870100
460.000000	90.859673
459.000000	90.822665
458.000000	90.805178
457.000000	90.791859
456.000000	90.810505
455.000000	90.744062
454.000000	90.779960
453.000000	90.764361
452.000000	90.718704
451.000000	90.689528
450.000000	90.706284
449.000000	90.648179
448.000000	90.695472
447.000000	90.685925
446.000000	90.606410
445.000000	90.601244
444.000000	90.583558
443.000000	90.587441
442.000000	90.568893
441.000000	90.555970
440.000000	90.520872
439.000000	90.564583
438.000000	90.555713
437.000000	90.519940
436.000000	90.604105
435.000000	90.541132
434.000000	90.511724
433.000000	90.511901
432.000000	90.520064
431.000000	90.493445
430.000000	90.531084
429.000000	90.528929
428.000000	90.503995
427.000000	90.497665
426.000000	90.473653
425.000000	90.482547
424.000000	90.493881
423.000000	90.506601
422.000000	90.463958
421.000000	90.450156
420.000000	90.441420
419.000000	90.457197
418.000000	90.495957
417.000000	90.459939
416.000000	90.452015
415.000000	90.459649
414.000000	90.488092
413.000000	90.500827
412.000000	90.540228
411.000000	90.543738
410.000000	90.520613
409.000000	90.515300
408.000000	90.527141
407.000000	90.515012
406.000000	90.557556
405.000000	90.579769
404.000000	90.539241
403.000000	90.533764
402.000000	90.565636
401.000000	90.566561
400.000000	90.512360
399.000000	90.470212
398.000000	90.411762
397.000000	90.424024
396.000000	90.391796
395.000000	90.328683
394.000000	90.323971
393.000000	90.223837
392.000000	90.110196
391.000000	90.061323
390.000000	90.000912
389.000000	89.903403
388.000000	89.846380
387.000000	89.699078
386.000000	89.556966
385.000000	89.453948
384.000000	89.350499
383.000000	89.248801
382.000000	89.192318
381.000000	89.115449
380.000000	89.069257
379.000000	89.115244
378.000000	89.165188
377.000000	89.221333
376.000000	89.256490
375.000000	89.358478
374.000000	89.429424
373.000000	89.472051
372.000000	89.548997
371.000000	89.542546
370.000000	89.484762
369.000000	89.488036
368.000000	89.448264
367.000000	89.383352
366.000000	89.346672
365.000000	89.218140
364.000000	89.089790
363.000000	88.968191
362.000000	88.818222
361.000000	88.656742
360.000000	88.505752
359.000000	88.328218
358.000000	88.124218
357.000000	87.888713
356.000000	87.653551
355.000000	87.374220
354.000000	87.076344
353.000000	86.755433
352.000000	86.382518
351.000000	85.989826
350.000000	85.583396
349.000000	85.133580
348.000000	84.629346
347.000000	84.072580
346.000000	83.483157
345.000000	82.834991
344.000000	82.158019
343.000000	81.396705
342.000000	80.573250
341.000000	79.695157
340.000000	78.732106
339.000000	77.692908
338.000000	76.592025
337.000000	75.374694
336.000000	74.087061
335.000000	72.732484
334.000000	71.243880
333.000000	69.686137
332.000000	68.055576
331.000000	66.298501
330.000000	64.447290
329.000000	62.483048
328.000000	60.405013
327.000000	58.245214
326.000000	55.998234
325.000000	53.676550
324.000000	51.264971
323.000000	48.754605
322.000000	46.181154
321.000000	43.561540
320.000000	40.897688
319.000000	38.235823
318.000000	35.534282
317.000000	32.828977
316.000000	30.165194
315.000000	27.537183
314.000000	24.960865
313.000000	22.462155
312.000000	20.056529
311.000000	17.763189
310.000000	15.591112
309.000000	13.552412
308.000000	11.667738
307.000000	9.947096
306.000000	8.388787
305.000000	6.986339
304.000000	5.750566
303.000000	4.671287
302.000000	3.743994
301.000000	2.966881
300.000000	2.319856
299.000000	1.781041
298.000000	1.344794
297.000000	0.999081
296.000000	0.730790
295.000000	0.526289
294.000000	0.370641
293.000000	0.257326
292.000000	0.175695
291.000000	0.116956
290.000000	0.077580
289.000000	0.050177
288.000000	0.030493
287.000000	0.018643
286.000000	0.005769
285.000000	0.003296
284.000000	0.005148
283.000000	0.003500
282.000000	0.000926
281.000000	0.000926
280.000000	-0.001646
279.000000	-0.002570
278.000000	-0.001336
277.000000	-0.001643
276.000000	0.000924
275.000000	0.000103
274.000000	-0.000615
273.000000	-0.000307
272.000000	-0.000102
271.000000	-0.001125
270.000000	0.001841
269.000000	0.001942
268.000000	-0.001533
267.000000	-0.000919
266.000000	0.000817
265.000000	0.001020
264.000000	0.000510
263.000000	-0.001020
262.000000	-0.003367
261.000000	-0.000918
260.000000	-0.000510
259.000000	0.002856
258.000000	0.002958
257.000000	-0.001530
256.000000	-0.002142
255.000000	-0.000816
254.000000	-0.000102
253.000000	0.003777
252.000000	0.002960
251.000000	-0.001327
250.000000	-0.000204
